Date	07-05-25
Spectrometer	HR600768
Lamp SN	F1540-01(PTB)
Int. Time(usec)	500000
Average	0
Boxcar	0
Fiber (micron)	 10000 
	
[uJoule/count]
178.69893	0.0000000E+00
179.05286	0.0000000E+00
179.40678	0.0000000E+00
179.76067	0.0000000E+00
180.11455	0.0000000E+00
180.46841	0.0000000E+00
180.82225	0.0000000E+00
181.17607	0.0000000E+00
181.52987	0.0000000E+00
181.88365	0.0000000E+00
182.23742	0.0000000E+00
182.59116	0.0000000E+00
182.94489	0.0000000E+00
183.29860	0.0000000E+00
183.65229	0.0000000E+00
184.00596	0.0000000E+00
184.35961	0.0000000E+00
184.71325	0.0000000E+00
185.06686	0.0000000E+00
185.42046	0.0000000E+00
185.77404	0.0000000E+00
186.12760	0.0000000E+00
186.48114	0.0000000E+00
186.83466	0.0000000E+00
187.18817	0.0000000E+00
187.54165	0.0000000E+00
187.89512	0.0000000E+00
188.24856	0.0000000E+00
188.60199	0.0000000E+00
188.95540	0.0000000E+00
189.30879	0.0000000E+00
189.66217	0.0000000E+00
190.01552	0.0000000E+00
190.36886	0.0000000E+00
190.72217	0.0000000E+00
191.07547	0.0000000E+00
191.42875	0.0000000E+00
191.78201	0.0000000E+00
192.13525	0.0000000E+00
192.48848	0.0000000E+00
192.84168	0.0000000E+00
193.19487	0.0000000E+00
193.54803	0.0000000E+00
193.90118	0.0000000E+00
194.25431	0.0000000E+00
194.60742	0.0000000E+00
194.96052	0.0000000E+00
195.31359	0.0000000E+00
195.66664	0.0000000E+00
196.01968	0.0000000E+00
196.37270	0.0000000E+00
196.72570	0.0000000E+00
197.07868	0.0000000E+00
197.43164	0.0000000E+00
197.78458	0.0000000E+00
198.13751	0.0000000E+00
198.49041	0.0000000E+00
198.84330	0.0000000E+00
199.19617	0.0000000E+00
199.54902	0.0000000E+00
199.90185	0.0000000E+00
200.25466	0.0000000E+00
200.60745	0.0000000E+00
200.96023	0.0000000E+00
201.31298	0.0000000E+00
201.66572	0.0000000E+00
202.01844	0.0000000E+00
202.37114	0.0000000E+00
202.72382	0.0000000E+00
203.07648	0.0000000E+00
203.42912	0.0000000E+00
203.78175	0.0000000E+00
204.13435	0.0000000E+00
204.48694	0.0000000E+00
204.83951	0.0000000E+00
205.19206	0.0000000E+00
205.54459	0.0000000E+00
205.89710	0.0000000E+00
206.24959	0.0000000E+00
206.60207	0.0000000E+00
206.95453	0.0000000E+00
207.30696	0.0000000E+00
207.65938	0.0000000E+00
208.01178	2.1218728E-04
208.36416	6.2156521E-03
208.71653	1.1770260E-02
209.06887	1.5600394E-02
209.42119	1.4593542E-02
209.77350	1.3882296E-02
210.12579	1.3104569E-02
210.47806	1.2593070E-02
210.83031	1.2103093E-02
211.18254	1.1248408E-02
211.53475	1.0965374E-02
211.88694	1.0255833E-02
212.23912	9.6717835E-03
212.59128	9.2068173E-03
212.94341	8.8790702E-03
213.29553	8.2866782E-03
213.64763	7.9956873E-03
213.99971	7.7572699E-03
214.35178	7.3710989E-03
214.70382	7.0387781E-03
215.05584	6.6702417E-03
215.40785	6.3821707E-03
215.75984	6.0858657E-03
216.11181	5.8133913E-03
216.46376	5.8103707E-03
216.81569	5.4704675E-03
217.16760	5.1898094E-03
217.51949	5.0144271E-03
217.87137	4.8264595E-03
218.22322	4.7025697E-03
218.57506	4.4927276E-03
218.92688	4.2955186E-03
219.27868	4.1759792E-03
219.63046	4.0589714E-03
219.98222	3.8878123E-03
220.33397	3.7986815E-03
220.68569	3.6805135E-03
221.03740	3.5885412E-03
221.38909	3.5184063E-03
221.74075	3.3521696E-03
222.09240	3.3332132E-03
222.44404	3.2222505E-03
222.79565	3.1593120E-03
223.14724	3.0152834E-03
223.49882	2.9729731E-03
223.85037	2.8585702E-03
224.20191	2.7965970E-03
224.55343	2.7115033E-03
224.90493	2.6513513E-03
225.25641	2.5521636E-03
225.60787	2.5095583E-03
225.95931	2.4240275E-03
226.31074	2.3630528E-03
226.66214	2.2857769E-03
227.01353	2.2157653E-03
227.36490	2.1922765E-03
227.71625	2.1176911E-03
228.06758	2.0600991E-03
228.41889	2.0060370E-03
228.77018	1.9475912E-03
229.12145	1.9185836E-03
229.47271	1.8517224E-03
229.82395	1.8007887E-03
230.17516	1.7539637E-03
230.52636	1.7010433E-03
230.87754	1.6577382E-03
231.22870	1.6177762E-03
231.57985	1.5858669E-03
231.93097	1.5454469E-03
232.28207	1.4983050E-03
232.63316	1.4581729E-03
232.98423	1.4373042E-03
233.33528	1.4006268E-03
233.68631	1.3565206E-03
234.03732	1.3278646E-03
234.38831	1.3055841E-03
234.73928	1.2584025E-03
235.09024	1.2305744E-03
235.44117	1.1972983E-03
235.79209	1.1694818E-03
236.14299	1.1428402E-03
236.49387	1.1258080E-03
236.84473	1.1036444E-03
237.19557	1.0754202E-03
237.54639	1.0517203E-03
237.89719	1.0249518E-03
238.24798	1.0050104E-03
238.59875	9.8679623E-04
238.94949	9.6269539E-04
239.30022	9.4572092E-04
239.65093	9.2637043E-04
240.00162	9.0617878E-04
240.35229	8.9713015E-04
240.70295	8.7761513E-04
241.05358	8.6686168E-04
241.40420	8.4962841E-04
241.75479	8.3870612E-04
242.10537	8.2630595E-04
242.45593	8.1254544E-04
242.80647	7.9887136E-04
243.15699	7.8956692E-04
243.50750	7.7879952E-04
243.85798	7.6889886E-04
244.20844	7.4214925E-04
244.55889	7.4499732E-04
244.90932	7.3982050E-04
245.25973	7.2703388E-04
245.61012	7.1972593E-04
245.96049	7.0677279E-04
246.31084	6.9759126E-04
246.66117	6.8580327E-04
247.01149	6.7542935E-04
247.36178	6.6493186E-04
247.71206	6.5739409E-04
248.06231	6.5258410E-04
248.41255	6.4243144E-04
248.76277	6.3456791E-04
249.11297	6.2922035E-04
249.46316	6.1897185E-04
249.81332	6.1607105E-04
250.16346	6.0978477E-04
250.51359	6.0017129E-04
250.86370	5.9422288E-04
251.21379	5.8670313E-04
251.56385	5.8252695E-04
251.91390	5.7931935E-04
252.26394	5.6979604E-04
252.61395	5.6634173E-04
252.96394	5.5614042E-04
253.31392	5.5540966E-04
253.66387	5.4966268E-04
254.01381	5.4109613E-04
254.36373	5.4018712E-04
254.71363	5.3252128E-04
255.06351	5.3171628E-04
255.41337	5.2588506E-04
255.76321	5.1859760E-04
256.11304	5.1468223E-04
256.46284	5.0991367E-04
256.81263	5.0557227E-04
257.16239	5.0258749E-04
257.51214	5.0058442E-04
257.86187	4.9967577E-04
258.21158	4.9326553E-04
258.56128	4.8958943E-04
258.91095	4.8452625E-04
259.26060	4.7857923E-04
259.61024	4.7575393E-04
259.95985	4.7139050E-04
260.30945	4.6967806E-04
260.65903	4.6852857E-04
261.00859	4.6513632E-04
261.35813	4.6242317E-04
261.70765	4.5842773E-04
262.05715	4.5816200E-04
262.40664	4.5400697E-04
262.75610	4.5177755E-04
263.10555	4.4959525E-04
263.45498	4.4572855E-04
263.80439	4.4425068E-04
264.15377	4.3995672E-04
264.50315	4.3999166E-04
264.85250	4.4018436E-04
265.20183	4.3842916E-04
265.55114	4.3759421E-04
265.90044	4.3868648E-04
266.24972	4.3322088E-04
266.59897	4.3012419E-04
266.94821	4.2721499E-04
267.29743	4.2209670E-04
267.64663	4.2348615E-04
267.99581	4.1619932E-04
268.34498	4.1320022E-04
268.69412	4.1407232E-04
269.04324	4.1164540E-04
269.39235	4.0796216E-04
269.74144	4.0843642E-04
270.09051	4.0290756E-04
270.43956	4.0256948E-04
270.78859	4.0163498E-04
271.13760	3.9878301E-04
271.48659	3.9670532E-04
271.83556	3.9687694E-04
272.18452	3.9382491E-04
272.53345	3.9187537E-04
272.88237	3.8873521E-04
273.23127	3.8658902E-04
273.58015	3.8664439E-04
273.92901	3.8108423E-04
274.27785	3.8132325E-04
274.62667	3.7716035E-04
274.97548	3.7423852E-04
275.32426	3.7145941E-04
275.67303	3.6658008E-04
276.02177	3.6203308E-04
276.37050	3.6021530E-04
276.71921	3.5687961E-04
277.06790	3.5521993E-04
277.41657	3.5210295E-04
277.76522	3.4707607E-04
278.11385	3.4736292E-04
278.46247	3.4387084E-04
278.81106	3.3964398E-04
279.15964	3.3599229E-04
279.50820	3.3490989E-04
279.85673	3.3123965E-04
280.20525	3.2931197E-04
280.55375	3.2490240E-04
280.90224	3.2049487E-04
281.25070	3.1793179E-04
281.59914	3.1584589E-04
281.94757	3.1491614E-04
282.29597	3.0932582E-04
282.64436	3.0782941E-04
282.99273	3.0420748E-04
283.34108	2.9976766E-04
283.68941	2.9903996E-04
284.03772	2.9589150E-04
284.38601	2.9251515E-04
284.73428	2.9092636E-04
285.08254	2.8616704E-04
285.43077	2.8462988E-04
285.77899	2.7938032E-04
286.12718	2.7999633E-04
286.47536	2.7488723E-04
286.82352	2.7120604E-04
287.17166	2.7004733E-04
287.51978	2.6417816E-04
287.86789	2.6239387E-04
288.21597	2.6000658E-04
288.56403	2.5746816E-04
288.91208	2.5495144E-04
289.26011	2.5309544E-04
289.60811	2.4959435E-04
289.95610	2.4668820E-04
290.30407	2.4449840E-04
290.65202	2.4082968E-04
290.99996	2.3863746E-04
291.34787	2.3613044E-04
291.69576	2.3258386E-04
292.04364	2.3143027E-04
292.39149	2.2627050E-04
292.73933	2.2405934E-04
293.08715	2.2014406E-04
293.43495	2.1942297E-04
293.78273	2.1917344E-04
294.13049	2.1787235E-04
294.47823	2.1488998E-04
294.82595	2.1300470E-04
295.17366	2.1163135E-04
295.52134	2.0948188E-04
295.86901	2.0807975E-04
296.21665	2.0633611E-04
296.56428	2.0496146E-04
296.91189	2.0279525E-04
297.25948	2.0063913E-04
297.60705	1.9974026E-04
297.95461	1.9767664E-04
298.30214	1.9578583E-04
298.64965	1.9531152E-04
298.99715	1.9340336E-04
299.34462	1.9252537E-04
299.69208	1.9041905E-04
300.03952	1.8902487E-04
300.38694	1.8882165E-04
300.73434	1.8793562E-04
301.08172	1.8683382E-04
301.42908	1.8595198E-04
301.77643	1.8462204E-04
302.12375	1.8329295E-04
302.47105	1.8264703E-04
302.81834	1.8227332E-04
303.16561	1.8089835E-04
303.51286	1.7907724E-04
303.86009	1.7818751E-04
304.20730	1.7659129E-04
304.55449	1.7615040E-04
304.90166	1.7396989E-04
305.24881	1.7234627E-04
305.59595	1.7151401E-04
305.94306	1.7100174E-04
306.29016	1.7032830E-04
306.63723	1.6959893E-04
306.98429	1.6833972E-04
307.33133	1.6729641E-04
307.67835	1.6623038E-04
308.02535	1.6657096E-04
308.37233	1.6461753E-04
308.71930	1.6502432E-04
309.06624	1.6414183E-04
309.41317	1.6270387E-04
309.76007	1.6266594E-04
310.10696	1.6090374E-04
310.45383	1.6048827E-04
310.80068	1.5982111E-04
311.14751	1.5898432E-04
311.49432	1.5913893E-04
311.84111	1.5763706E-04
312.18788	1.5656334E-04
312.53463	1.5587591E-04
312.88137	1.5511892E-04
313.22808	1.5454157E-04
313.57478	1.5345184E-04
313.92146	1.5337027E-04
314.26812	1.5334798E-04
314.61476	1.5173214E-04
314.96138	1.5101419E-04
315.30798	1.5076133E-04
315.65456	1.4916593E-04
316.00112	1.4847864E-04
316.34767	1.4768829E-04
316.69419	1.4774316E-04
317.04070	1.4718945E-04
317.38719	1.4624806E-04
317.73365	1.4546453E-04
318.08010	1.4454888E-04
318.42653	1.4487896E-04
318.77294	1.4438008E-04
319.11934	1.4412000E-04
319.46571	1.4274380E-04
319.81206	1.4251927E-04
320.15840	1.4220808E-04
320.50471	1.4231358E-04
320.85101	1.4150210E-04
321.19729	1.4138335E-04
321.54354	1.4078959E-04
321.88978	1.4042306E-04
322.23600	1.3955266E-04
322.58221	1.3990369E-04
322.92839	1.3979136E-04
323.27455	1.3974164E-04
323.62070	1.4008157E-04
323.96682	1.4025335E-04
324.31293	1.4348094E-04
324.65901	1.4536549E-04
325.00508	1.4531049E-04
325.35113	1.4336022E-04
325.69716	1.4045882E-04
326.04317	1.3841780E-04
326.38916	1.3714991E-04
326.73513	1.3556222E-04
327.08109	1.3452047E-04
327.42702	1.3379075E-04
327.77294	1.3340968E-04
328.11883	1.3227576E-04
328.46471	1.3142631E-04
328.81057	1.3005311E-04
329.15641	1.2839335E-04
329.50223	1.2619471E-04
329.84803	1.2307256E-04
330.19381	1.2228257E-04
330.53957	1.2312607E-04
330.88532	1.2539088E-04
331.23104	1.2714915E-04
331.57675	1.2662529E-04
331.92243	1.2623493E-04
332.26810	1.2668144E-04
332.61375	1.2565127E-04
332.95938	1.2548704E-04
333.30499	1.2521628E-04
333.65058	1.2373734E-04
333.99615	1.2438542E-04
334.34170	1.2354552E-04
334.68723	1.2371275E-04
335.03275	1.2401959E-04
335.37824	1.2359346E-04
335.72372	1.2367522E-04
336.06918	1.2248833E-04
336.41461	1.2186492E-04
336.76003	1.2126100E-04
337.10543	1.2090392E-04
337.45081	1.2010404E-04
337.79618	1.1894522E-04
338.14152	1.1936449E-04
338.48684	1.1858377E-04
338.83215	1.1936254E-04
339.17743	1.1822767E-04
339.52270	1.1833332E-04
339.86794	1.1752091E-04
340.21317	1.1756053E-04
340.55838	1.1774135E-04
340.90357	1.1684274E-04
341.24874	1.1690295E-04
341.59389	1.1744008E-04
341.93902	1.1702794E-04
342.28414	1.1619455E-04
342.62923	1.1580878E-04
342.97431	1.1602900E-04
343.31936	1.1597404E-04
343.66440	1.1499052E-04
344.00942	1.1409795E-04
344.35441	1.1539000E-04
344.69939	1.1505877E-04
345.04435	1.1526578E-04
345.38930	1.1476335E-04
345.73422	1.1486054E-04
346.07912	1.1420596E-04
346.42400	1.1328281E-04
346.76887	1.1295700E-04
347.11371	1.1215863E-04
347.45854	1.1198398E-04
347.80335	1.1208636E-04
348.14813	1.1159089E-04
348.49290	1.1195468E-04
348.83765	1.1190737E-04
349.18238	1.1183838E-04
349.52710	1.1005241E-04
349.87179	1.1159098E-04
350.21646	1.1083370E-04
350.56111	1.1139973E-04
350.90575	1.1063361E-04
351.25037	1.1073689E-04
351.59496	1.1147539E-04
351.93954	1.1107627E-04
352.28410	1.1023266E-04
352.62864	1.1029030E-04
352.97316	1.1046207E-04
353.31766	1.1032717E-04
353.66214	1.0993992E-04
354.00660	1.1035068E-04
354.35104	1.1010436E-04
354.69547	1.1005481E-04
355.03987	1.0992202E-04
355.38426	1.1028973E-04
355.72863	1.0963083E-04
356.07297	1.1047221E-04
356.41730	1.0966119E-04
356.76161	1.0920907E-04
357.10590	1.0822648E-04
357.45017	1.0914988E-04
357.79442	1.0888615E-04
358.13866	1.0873054E-04
358.48287	1.0905524E-04
358.82707	1.0926607E-04
359.17124	1.1003829E-04
359.51540	1.0965958E-04
359.85953	1.0926895E-04
360.20365	1.1024434E-04
360.54775	1.1056777E-04
360.89183	1.0948385E-04
361.23589	1.0980909E-04
361.57993	1.0941648E-04
361.92395	1.0953767E-04
362.26795	1.0861830E-04
362.61194	1.0842662E-04
362.95590	1.0955045E-04
363.29985	1.0850621E-04
363.64377	1.0869790E-04
363.98768	1.0870536E-04
364.33157	1.0927184E-04
364.67543	1.0923483E-04
365.01928	1.0937214E-04
365.36311	1.0917934E-04
365.70692	1.0900654E-04
366.05072	1.0881844E-04
366.39449	1.0906076E-04
366.73824	1.0783321E-04
367.08198	1.0846722E-04
367.42569	1.0761262E-04
367.76939	1.0666040E-04
368.11306	1.0705712E-04
368.45672	1.0684467E-04
368.80036	1.0688948E-04
369.14398	1.0761692E-04
369.48758	1.0652344E-04
369.83116	1.0614757E-04
370.17472	1.0672027E-04
370.51826	1.0660208E-04
370.86178	1.0604120E-04
371.20529	1.0613821E-04
371.54877	1.0609364E-04
371.89224	1.0567875E-04
372.23568	1.0659632E-04
372.57911	1.0563027E-04
372.92252	1.0575650E-04
373.26591	1.0549142E-04
373.60927	1.0532281E-04
373.95262	1.0621093E-04
374.29596	1.0516820E-04
374.63927	1.0483146E-04
374.98256	1.0496504E-04
375.32583	1.0374075E-04
375.66909	1.0229996E-04
376.01232	1.0174743E-04
376.35554	1.0168266E-04
376.69873	1.0202287E-04
377.04191	1.0178043E-04
377.38507	1.0234127E-04
377.72821	1.0196955E-04
378.07133	1.0134471E-04
378.41443	1.0074350E-04
378.75751	1.0077934E-04
379.10057	9.9617121E-05
379.44361	9.8411523E-05
379.78663	9.7409033E-05
380.12964	9.7700834E-05
380.47262	9.6873347E-05
380.81559	9.8403372E-05
381.15854	9.8165375E-05
381.50146	9.8323923E-05
381.84437	9.7679822E-05
382.18726	9.8145440E-05
382.53013	9.7184085E-05
382.87298	9.6575929E-05
383.21581	9.6080229E-05
383.55862	9.4860586E-05
383.90141	9.4685941E-05
384.24419	9.4566582E-05
384.58694	9.4525694E-05
384.92968	9.3981302E-05
385.27239	9.3703424E-05
385.61509	9.4020306E-05
385.95776	9.3184475E-05
386.30042	9.3402735E-05
386.64306	9.3667000E-05
386.98568	9.3874800E-05
387.32828	9.2658693E-05
387.67086	9.1160996E-05
388.01342	9.0349959E-05
388.35597	8.9229999E-05
388.69849	8.8476150E-05
389.04099	8.7847427E-05
389.38348	8.8611231E-05
389.72594	8.8822065E-05
390.06839	9.0463714E-05
390.41081	9.1119757E-05
390.75322	9.1437795E-05
391.09561	9.1036237E-05
391.43798	9.0923447E-05
391.78033	9.1116162E-05
392.12266	9.0346382E-05
392.46497	8.8537618E-05
392.80726	8.7165644E-05
393.14954	8.4651229E-05
393.49179	8.3566194E-05
393.83402	8.3137642E-05
394.17624	8.3830980E-05
394.51843	8.5353173E-05
394.86061	8.7182695E-05
395.20277	8.6978011E-05
395.54490	8.6470200E-05
395.88702	8.6578249E-05
396.22912	8.7162026E-05
396.57120	8.8059930E-05
396.91326	8.7746416E-05
397.25530	8.7603772E-05
397.59733	8.6568745E-05
397.93933	8.4830209E-05
398.28131	8.3863066E-05
398.62328	8.1591374E-05
398.96522	7.9474186E-05
399.30715	7.9985072E-05
399.64905	7.8762002E-05
399.99094	8.0099892E-05
400.33281	7.9879953E-05
400.67466	7.9602657E-05
401.01649	7.9381868E-05
401.35830	7.9075333E-05
401.70009	7.8835000E-05
402.04186	7.8535477E-05
402.38361	7.8361498E-05
402.72534	7.8397825E-05
403.06706	7.7945104E-05
403.40875	7.7848652E-05
403.75043	7.7498593E-05
404.09208	7.7228155E-05
404.43372	7.7090618E-05
404.77534	7.6999270E-05
405.11693	7.6907856E-05
405.45851	7.6606293E-05
405.80007	7.6492644E-05
406.14161	7.6270857E-05
406.48313	7.5891920E-05
406.82463	7.5854754E-05
407.16611	7.5546821E-05
407.50758	7.5552515E-05
407.84902	7.5451625E-05
408.19044	7.5222177E-05
408.53185	7.5157184E-05
408.87323	7.4868673E-05
409.21460	7.4652269E-05
409.55595	7.4578010E-05
409.89727	7.4457175E-05
410.23858	7.4224204E-05
410.57987	7.3986823E-05
410.92114	7.4052567E-05
411.26239	7.3768542E-05
411.60362	7.3676083E-05
411.94483	7.3559846E-05
412.28603	7.3273188E-05
412.62720	7.3223719E-05
412.96835	7.3133908E-05
413.30949	7.3074917E-05
413.65060	7.2905282E-05
413.99170	7.2824828E-05
414.33277	7.2539125E-05
414.67383	7.2627641E-05
415.01487	7.2531224E-05
415.35589	7.2208437E-05
415.69688	7.2230177E-05
416.03786	7.1863120E-05
416.37882	7.1824256E-05
416.71977	7.1746551E-05
417.06069	7.1662489E-05
417.40159	7.1574426E-05
417.74247	7.1332535E-05
418.08334	7.1271607E-05
418.42418	7.1207361E-05
418.76500	7.0936892E-05
419.10581	7.0919110E-05
419.44660	7.0810431E-05
419.78736	7.0786768E-05
420.12811	7.0662968E-05
420.46884	7.0478797E-05
420.80955	7.0306985E-05
421.15024	7.0386913E-05
421.49091	7.0151952E-05
421.83156	7.0185851E-05
422.17219	6.9962282E-05
422.51280	6.9938047E-05
422.85339	6.9679272E-05
423.19397	6.9766888E-05
423.53452	6.9583316E-05
423.87506	6.9538229E-05
424.21557	6.9364240E-05
424.55607	6.9345819E-05
424.89654	6.9110375E-05
425.23700	6.9030328E-05
425.57744	6.9015832E-05
425.91786	6.8926588E-05
426.25826	6.8760761E-05
426.59864	6.8769536E-05
426.93900	6.8740637E-05
427.27934	6.8617836E-05
427.61966	6.8418913E-05
427.95996	6.8348752E-05
428.30025	6.8134427E-05
428.64051	6.8174320E-05
428.98075	6.8146693E-05
429.32098	6.7889464E-05
429.66118	6.7912728E-05
430.00137	6.7764035E-05
430.34154	6.7659402E-05
430.68168	6.7631785E-05
431.02181	6.7501990E-05
431.36192	6.7360417E-05
431.70201	6.7232305E-05
432.04208	6.7264063E-05
432.38213	6.7140889E-05
432.72216	6.6998755E-05
433.06217	6.6979534E-05
433.40216	6.6859479E-05
433.74214	6.6870810E-05
434.08209	6.6763220E-05
434.42203	6.6540307E-05
434.76194	6.6461444E-05
435.10184	6.6467861E-05
435.44171	6.6282697E-05
435.78157	6.6263437E-05
436.12141	6.6131875E-05
436.46122	6.6067232E-05
436.80102	6.5963218E-05
437.14080	6.5919188E-05
437.48056	6.5881473E-05
437.82030	6.5772855E-05
438.16002	6.5669608E-05
438.49972	6.5639113E-05
438.83941	6.5650982E-05
439.17907	6.5583159E-05
439.51871	6.5432695E-05
439.85833	6.5324770E-05
440.19794	6.5313820E-05
440.53752	6.5316211E-05
440.87709	6.5183866E-05
441.21664	6.5113023E-05
441.55616	6.4982463E-05
441.89567	6.5028685E-05
442.23516	6.4965748E-05
442.57463	6.4817824E-05
442.91408	6.4785685E-05
443.25351	6.4816376E-05
443.59292	6.4581459E-05
443.93231	6.4588579E-05
444.27168	6.4438712E-05
444.61103	6.4458776E-05
444.95036	6.4354792E-05
445.28968	6.4189100E-05
445.62897	6.4143303E-05
445.96825	6.4135288E-05
446.30750	6.4133343E-05
446.64674	6.3929286E-05
446.98595	6.3895352E-05
447.32515	6.3881128E-05
447.66433	6.3879458E-05
448.00348	6.3700838E-05
448.34262	6.3694889E-05
448.68174	6.3614715E-05
449.02084	6.3560110E-05
449.35992	6.3504155E-05
449.69898	6.3496418E-05
450.03802	6.3333826E-05
450.37705	6.3362778E-05
450.71605	6.3426453E-05
451.05503	6.3397296E-05
451.39399	6.3294608E-05
451.73294	6.3320529E-05
452.07186	6.3243918E-05
452.41077	6.3236640E-05
452.74965	6.3238740E-05
453.08852	6.3151124E-05
453.42737	6.3218302E-05
453.76619	6.3086616E-05
454.10500	6.3097014E-05
454.44379	6.3027767E-05
454.78256	6.2997721E-05
455.12131	6.2877680E-05
455.46004	6.2936384E-05
455.79875	6.3011498E-05
456.13744	6.2876905E-05
456.47611	6.2901609E-05
456.81477	6.2937048E-05
457.15340	6.2797582E-05
457.49201	6.2759362E-05
457.83061	6.2724848E-05
458.16918	6.2696763E-05
458.50774	6.2707372E-05
458.84627	6.2735616E-05
459.18479	6.2654905E-05
459.52329	6.2541308E-05
459.86176	6.2597643E-05
460.20022	6.2557807E-05
460.53866	6.2606377E-05
460.87708	6.2544498E-05
461.21548	6.2425742E-05
461.55386	6.2354925E-05
461.89222	6.2272219E-05
462.23056	6.2190131E-05
462.56888	6.2108466E-05
462.90718	6.2044959E-05
463.24547	6.1976254E-05
463.58373	6.1866131E-05
463.92197	6.1779259E-05
464.26020	6.1650487E-05
464.59840	6.1532137E-05
464.93659	6.1507977E-05
465.27475	6.1294955E-05
465.61290	6.1280231E-05
465.95103	6.1213525E-05
466.28913	6.1003121E-05
466.62722	6.0900645E-05
466.96529	6.0829604E-05
467.30334	6.0769020E-05
467.64137	6.0782924E-05
467.97938	6.0602912E-05
468.31737	6.0567067E-05
468.65534	6.0456724E-05
468.99329	6.0362644E-05
469.33122	6.0339758E-05
469.66914	6.0299712E-05
470.00703	6.0203857E-05
470.34490	6.0056900E-05
470.68276	6.0160357E-05
471.02059	5.9993599E-05
471.35841	5.9904680E-05
471.69620	5.9802441E-05
472.03398	5.9763702E-05
472.37174	5.9669505E-05
472.70947	5.9572589E-05
473.04719	5.9330171E-05
473.38489	5.9285362E-05
473.72257	5.9168188E-05
474.06023	5.9163780E-05
474.39787	5.8985298E-05
474.73549	5.9028334E-05
475.07309	5.9005165E-05
475.41067	5.8894766E-05
475.74823	5.8785167E-05
476.08577	5.8678881E-05
476.42329	5.8586325E-05
476.76080	5.8558880E-05
477.09828	5.8506515E-05
477.43574	5.8338736E-05
477.77319	5.8314511E-05
478.11061	5.8232814E-05
478.44802	5.8233864E-05
478.78540	5.8166790E-05
479.12277	5.8141346E-05
479.46012	5.8030383E-05
479.79745	5.8035952E-05
480.13475	5.7974772E-05
480.47204	5.7990677E-05
480.80931	5.8007528E-05
481.14656	5.7850522E-05
481.48379	5.7895884E-05
481.82100	5.7888891E-05
482.15819	5.7829242E-05
482.49536	5.7782741E-05
482.83251	5.7725636E-05
483.16965	5.7659764E-05
483.50676	5.7622365E-05
483.84385	5.7525029E-05
484.18092	5.7562596E-05
484.51798	5.7596277E-05
484.85501	5.7523208E-05
485.19203	5.7558512E-05
485.52902	5.7451063E-05
485.86600	5.7503725E-05
486.20296	5.7462065E-05
486.53989	5.7389709E-05
486.87681	5.7375349E-05
487.21371	5.7420079E-05
487.55059	5.7471865E-05
487.88744	5.7394160E-05
488.22428	5.7345937E-05
488.56110	5.7331075E-05
488.89790	5.7271878E-05
489.23468	5.7256415E-05
489.57144	5.7305411E-05
489.90819	5.7269264E-05
490.24491	5.7265150E-05
490.58161	5.7235986E-05
490.91829	5.7232282E-05
491.25496	5.7206319E-05
491.59160	5.7274576E-05
491.92822	5.7232374E-05
492.26483	5.7210297E-05
492.60141	5.7070357E-05
492.93798	5.7091834E-05
493.27452	5.7084018E-05
493.61105	5.7151123E-05
493.94756	5.7036738E-05
494.28404	5.7116604E-05
494.62051	5.7100158E-05
494.95696	5.7039547E-05
495.29339	5.7006964E-05
495.62980	5.6994762E-05
495.96618	5.6944170E-05
496.30255	5.6915706E-05
496.63890	5.6842396E-05
496.97524	5.6906520E-05
497.31155	5.6886686E-05
497.64784	5.6842132E-05
497.98411	5.6831883E-05
498.32036	5.6852684E-05
498.65659	5.6774342E-05
498.99281	5.6852472E-05
499.32900	5.6680773E-05
499.66518	5.6624784E-05
500.00133	5.6638901E-05
500.33746	5.6687596E-05
500.67358	5.6700757E-05
501.00968	5.6633380E-05
501.34575	5.6581060E-05
501.68181	5.6630045E-05
502.01784	5.6575396E-05
502.35386	5.6587051E-05
502.68986	5.6473348E-05
503.02584	5.6523393E-05
503.36180	5.6408613E-05
503.69773	5.6407683E-05
504.03365	5.6389583E-05
504.36955	5.6340608E-05
504.70543	5.6441884E-05
505.04129	5.6420843E-05
505.37714	5.6332505E-05
505.71296	5.6291470E-05
506.04876	5.6324233E-05
506.38454	5.6269438E-05
506.72030	5.6214911E-05
507.05605	5.6223398E-05
507.39177	5.6179037E-05
507.72747	5.6142590E-05
508.06316	5.6130987E-05
508.39882	5.6088977E-05
508.73447	5.6094847E-05
509.07009	5.6081089E-05
509.40570	5.6033118E-05
509.74128	5.6007641E-05
510.07685	5.5961170E-05
510.41240	5.5914187E-05
510.74793	5.5899290E-05
511.08343	5.5875002E-05
511.41892	5.5858871E-05
511.75439	5.5800806E-05
512.08984	5.5829173E-05
512.42527	5.5826470E-05
512.76068	5.5727651E-05
513.09607	5.5699210E-05
513.43144	5.5688146E-05
513.76679	5.5632164E-05
514.10212	5.5700349E-05
514.43743	5.5581965E-05
514.77272	5.5671240E-05
515.10799	5.5612247E-05
515.44325	5.5610732E-05
515.77848	5.5587487E-05
516.11369	5.5589602E-05
516.44889	5.5522100E-05
516.78406	5.5500511E-05
517.11922	5.5470463E-05
517.45435	5.5514840E-05
517.78947	5.5507898E-05
518.12456	5.5428435E-05
518.45964	5.5435955E-05
518.79469	5.5462093E-05
519.12973	5.5369630E-05
519.46475	5.5404283E-05
519.79975	5.5372129E-05
520.13472	5.5301629E-05
520.46968	5.5325562E-05
520.80462	5.5311760E-05
521.13954	5.5344914E-05
521.47444	5.5301865E-05
521.80932	5.5285860E-05
522.14418	5.5258086E-05
522.47902	5.5180229E-05
522.81384	5.5204224E-05
523.14864	5.5138495E-05
523.48342	5.5105258E-05
523.81818	5.5062312E-05
524.15292	5.5095144E-05
524.48765	5.5084913E-05
524.82235	5.5039359E-05
525.15703	5.5015099E-05
525.49170	5.5018164E-05
525.82634	5.4993251E-05
526.16096	5.4998766E-05
526.49557	5.5022641E-05
526.83015	5.5061961E-05
527.16472	5.4990376E-05
527.49926	5.5022581E-05
527.83379	5.4949475E-05
528.16829	5.5026815E-05
528.50278	5.4951459E-05
528.83725	5.4974538E-05
529.17170	5.4929173E-05
529.50612	5.4912865E-05
529.84053	5.4874569E-05
530.17492	5.4842211E-05
530.50929	5.4790565E-05
530.84364	5.4802333E-05
531.17796	5.4795099E-05
531.51227	5.4781897E-05
531.84656	5.4779266E-05
532.18083	5.4777447E-05
532.51508	5.4813054E-05
532.84932	5.4781681E-05
533.18353	5.4759734E-05
533.51772	5.4769950E-05
533.85189	5.4695407E-05
534.18604	5.4681369E-05
534.52017	5.4656599E-05
534.85429	5.4626051E-05
535.18838	5.4628440E-05
535.52245	5.4566997E-05
535.85651	5.4596310E-05
536.19054	5.4599242E-05
536.52455	5.4577768E-05
536.85855	5.4596255E-05
537.19252	5.4610731E-05
537.52648	5.4553614E-05
537.86041	5.4562913E-05
538.19433	5.4549558E-05
538.52823	5.4577405E-05
538.86210	5.4629183E-05
539.19596	5.4537663E-05
539.52980	5.4813632E-05
539.86361	5.4573148E-05
540.19741	5.4555220E-05
540.53119	5.4571497E-05
540.86495	5.4574868E-05
541.19869	5.4565396E-05
541.53240	5.4576287E-05
541.86610	5.4568702E-05
542.19978	5.4603393E-05
542.53344	5.4639666E-05
542.86708	5.4619232E-05
543.20070	5.4597704E-05
543.53430	5.4668864E-05
543.86788	5.4677981E-05
544.20144	5.4626467E-05
544.53499	5.4667018E-05
544.86851	5.4623806E-05
545.20201	5.4630538E-05
545.53549	5.4569114E-05
545.86895	5.4555497E-05
546.20240	5.4559023E-05
546.53582	5.4538225E-05
546.86922	5.4538731E-05
547.20261	5.4489163E-05
547.53597	5.4520211E-05
547.86932	5.4463532E-05
548.20264	5.4441120E-05
548.53594	5.4372037E-05
548.86923	5.4352829E-05
549.20250	5.4303057E-05
549.53574	5.4279969E-05
549.86897	5.4240424E-05
550.20217	5.4176677E-05
550.53536	5.4076639E-05
550.86853	5.4015383E-05
551.20167	5.3974461E-05
551.53480	5.3818579E-05
551.86791	5.3758593E-05
552.20100	5.3674803E-05
552.53406	5.3551606E-05
552.86711	5.3475887E-05
553.20014	5.3396086E-05
553.53315	5.3341565E-05
553.86614	5.3316183E-05
554.19911	5.3274939E-05
554.53206	5.3216483E-05
554.86499	5.3175124E-05
555.19790	5.3125720E-05
555.53079	5.3023707E-05
555.86366	5.2963166E-05
556.19651	5.2989748E-05
556.52934	5.2966946E-05
556.86215	5.2949678E-05
557.19494	5.2926460E-05
557.52771	5.2943902E-05
557.86047	5.2934321E-05
558.19320	5.2961783E-05
558.52591	5.2925616E-05
558.85860	5.2933450E-05
559.19128	5.2925008E-05
559.52393	5.2949254E-05
559.85656	5.2946244E-05
560.18918	5.2926756E-05
560.52177	5.2905565E-05
560.85435	5.2880307E-05
561.18690	5.2929788E-05
561.51943	5.2956209E-05
561.85195	5.2964385E-05
562.18445	5.2997893E-05
562.51692	5.3012203E-05
562.84938	5.3022886E-05
563.18181	5.2989152E-05
563.51423	5.3016836E-05
563.84662	5.3027497E-05
564.17900	5.3081457E-05
564.51136	5.3038322E-05
564.84370	5.3071616E-05
565.17601	5.3060533E-05
565.50831	5.3046751E-05
565.84059	5.3056465E-05
566.17285	5.3027079E-05
566.50508	5.3106494E-05
566.83730	5.3048749E-05
567.16950	5.3043903E-05
567.50168	5.3091757E-05
567.83384	5.3083704E-05
568.16598	5.3113330E-05
568.49810	5.3096364E-05
568.83020	5.3172479E-05
569.16228	5.3098817E-05
569.49434	5.3160847E-05
569.82638	5.3185691E-05
570.15840	5.3204208E-05
570.49040	5.3253721E-05
570.82238	5.3256783E-05
571.15434	5.3311240E-05
571.48628	5.3279069E-05
571.81820	5.3300276E-05
572.15011	5.3352718E-05
572.48199	5.3392783E-05
572.81385	5.3375340E-05
573.14569	5.3409807E-05
573.47751	5.3426990E-05
573.80932	5.3476008E-05
574.14110	5.3488634E-05
574.47286	5.3582109E-05
574.80461	5.3627726E-05
575.13633	5.3740365E-05
575.46803	5.3853911E-05
575.79972	5.3938349E-05
576.13138	5.3970099E-05
576.46303	5.4019196E-05
576.79465	5.4134748E-05
577.12626	5.4145176E-05
577.45784	5.4160629E-05
577.78941	5.4214710E-05
578.12095	5.4206626E-05
578.45248	5.4213238E-05
578.78398	5.4244364E-05
579.11547	5.4262251E-05
579.44694	5.4223984E-05
579.77838	5.4251190E-05
580.10981	5.4245018E-05
580.44121	5.4238934E-05
580.77260	5.4225295E-05
581.10397	5.4198916E-05
581.43532	5.4182642E-05
581.76664	5.4097583E-05
582.09795	5.4093773E-05
582.42924	5.4032583E-05
582.76051	5.3946455E-05
583.09175	5.3875966E-05
583.42298	5.3789861E-05
583.75419	5.3664600E-05
584.08538	5.3566240E-05
584.41655	5.3459340E-05
584.74770	5.3347004E-05
585.07882	5.3168945E-05
585.40993	5.3031472E-05
585.74102	5.2850561E-05
586.07209	5.2729998E-05
586.40314	5.2569059E-05
586.73417	5.2363299E-05
587.06518	5.2224319E-05
587.39617	5.2035098E-05
587.72714	5.1866497E-05
588.05809	5.1705977E-05
588.38902	5.1585305E-05
588.71993	5.1418147E-05
589.05083	5.1224118E-05
589.38170	5.1094699E-05
589.71255	5.0942013E-05
590.04338	5.0793259E-05
590.37419	5.0812115E-05
590.70498	5.0731179E-05
591.03575	5.0626479E-05
591.36651	5.0561448E-05
591.69724	5.0503246E-05
592.02795	5.0428439E-05
592.35864	5.0409847E-05
592.68932	5.0410993E-05
593.01997	5.0330458E-05
593.35060	5.0295938E-05
593.68121	5.0327215E-05
594.01181	5.0302893E-05
594.34238	5.0313401E-05
594.67293	5.0322685E-05
595.00347	5.0328943E-05
595.33398	5.0398405E-05
595.66448	5.0432615E-05
595.99495	5.0397333E-05
596.32540	5.0396797E-05
596.65584	5.0453768E-05
596.98625	5.0391728E-05
597.31665	5.0434787E-05
597.64702	5.0456959E-05
597.97738	5.0474868E-05
598.30771	5.0486366E-05
598.63803	5.0507971E-05
598.96832	5.0546360E-05
599.29860	5.0577662E-05
599.62885	5.0592494E-05
599.95909	5.0614069E-05
600.28930	5.0636837E-05
600.61950	5.0656045E-05
600.94967	5.0682381E-05
601.27983	5.0699069E-05
601.60997	5.0730250E-05
601.94008	5.0768331E-05
602.27018	5.0766272E-05
602.60025	5.0766852E-05
602.93031	5.0816392E-05
603.26035	5.0803276E-05
603.59036	5.0864530E-05
603.92036	5.0917840E-05
604.25034	5.0925962E-05
604.58029	5.0949531E-05
604.91023	5.0944570E-05
605.24015	5.0992228E-05
605.57005	5.0973787E-05
605.89992	5.1019036E-05
606.22978	5.0965023E-05
606.55962	5.1080341E-05
606.88944	5.1074439E-05
607.21923	5.1162662E-05
607.54901	5.1174612E-05
607.87877	5.1138599E-05
608.20851	5.1192458E-05
608.53823	5.1227962E-05
608.86793	5.1214312E-05
609.19760	5.1241350E-05
609.52726	5.1277424E-05
609.85690	5.1268510E-05
610.18652	5.1300536E-05
610.51612	5.1324219E-05
610.84570	5.1373872E-05
611.17526	5.1346325E-05
611.50480	5.1312725E-05
611.83431	5.1346685E-05
612.16381	5.1342814E-05
612.49329	5.1368161E-05
612.82275	5.1424889E-05
613.15219	5.1439370E-05
613.48161	5.1475757E-05
613.81101	5.1483467E-05
614.14039	5.1514665E-05
614.46975	5.1519595E-05
614.79909	5.1530364E-05
615.12841	5.1550931E-05
615.45771	5.1502553E-05
615.78699	5.1572309E-05
616.11625	5.1566891E-05
616.44549	5.1618619E-05
616.77471	5.1635402E-05
617.10391	5.1608018E-05
617.43309	5.1613968E-05
617.76225	5.1644865E-05
618.09139	5.1641271E-05
618.42051	5.1677683E-05
618.74962	5.1713164E-05
619.07870	5.1683042E-05
619.40776	5.1713781E-05
619.73680	5.1705819E-05
620.06582	5.1747572E-05
620.39482	5.1742698E-05
620.72380	5.1758600E-05
621.05276	5.1784257E-05
621.38170	5.1813387E-05
621.71062	5.1854198E-05
622.03953	5.1837578E-05
622.36841	5.1891531E-05
622.69727	5.1916679E-05
623.02611	5.1886472E-05
623.35493	5.1897086E-05
623.68373	5.1886114E-05
624.01251	5.1883902E-05
624.34128	5.1903838E-05
624.67002	5.1926484E-05
624.99874	5.1974014E-05
625.32744	5.2014148E-05
625.65612	5.2005987E-05
625.98479	5.1994614E-05
626.31343	5.2026023E-05
626.64205	5.1988864E-05
626.97065	5.1978579E-05
627.29923	5.2041350E-05
627.62780	5.2039957E-05
627.95634	5.2040500E-05
628.28486	5.2089736E-05
628.61336	5.2119145E-05
628.94184	5.2106492E-05
629.27031	5.2124771E-05
629.59875	5.2071908E-05
629.92717	5.2090598E-05
630.25557	5.2037604E-05
630.58396	5.2091605E-05
630.91232	5.2084031E-05
631.24066	5.2204427E-05
631.56898	5.2195673E-05
631.89729	5.2296372E-05
632.22557	5.2274073E-05
632.55383	5.2249103E-05
632.88207	5.2251938E-05
633.21030	5.2223189E-05
633.53850	5.2255485E-05
633.86668	5.2237689E-05
634.19484	5.2238287E-05
634.52299	5.2322495E-05
634.85111	5.2359393E-05
635.17921	5.2384181E-05
635.50729	5.2364396E-05
635.83536	5.2423665E-05
636.16340	5.2389382E-05
636.49142	5.2377309E-05
636.81942	5.2373807E-05
637.14741	5.2383569E-05
637.47537	5.2414884E-05
637.80331	5.2466827E-05
638.13124	5.2528304E-05
638.45914	5.2509131E-05
638.78702	5.2538785E-05
639.11488	5.2540615E-05
639.44273	5.2501791E-05
639.77055	5.2476878E-05
640.09835	5.2525665E-05
640.42613	5.2548168E-05
640.75390	5.2545820E-05
641.08164	5.2631270E-05
641.40936	5.2665419E-05
641.73707	5.2751460E-05
642.06475	5.2767206E-05
642.39241	5.2757710E-05
642.72005	5.2811572E-05
643.04768	5.2758322E-05
643.37528	5.2743703E-05
643.70286	5.2734843E-05
644.03042	5.2725729E-05
644.35797	5.2800468E-05
644.68549	5.2790357E-05
645.01299	5.2846586E-05
645.34048	5.2886914E-05
645.66794	5.2936755E-05
645.99538	5.2969369E-05
646.32280	5.2964570E-05
646.65021	5.2945145E-05
646.97759	5.2929319E-05
647.30495	5.2865107E-05
647.63229	5.2851851E-05
647.95962	5.2925560E-05
648.28692	5.2922546E-05
648.61420	5.2979113E-05
648.94146	5.3043564E-05
649.26871	5.3092595E-05
649.59593	5.3091579E-05
649.92313	5.3090163E-05
650.25031	5.3036334E-05
650.57747	5.3048165E-05
650.90462	5.3011901E-05
651.23174	5.3017742E-05
651.55884	5.3125453E-05
651.88592	5.3138943E-05
652.21299	5.3200516E-05
652.54003	5.3273755E-05
652.86705	5.3301078E-05
653.19405	5.3276060E-05
653.52103	5.3264952E-05
653.84799	5.3191647E-05
654.17494	5.3186906E-05
654.50186	5.3175797E-05
654.82876	5.3259437E-05
655.15564	5.3310599E-05
655.48250	5.3374776E-05
655.80934	5.3451356E-05
656.13617	5.3471627E-05
656.46297	5.3571872E-05
656.78975	5.3481240E-05
657.11651	5.3468552E-05
657.44325	5.3368996E-05
657.76997	5.3347434E-05
658.09667	5.3328417E-05
658.42336	5.3360468E-05
658.75002	5.3398569E-05
659.07666	5.3490985E-05
659.40328	5.3569514E-05
659.72988	5.3652652E-05
660.05646	5.3717398E-05
660.38302	5.3729717E-05
660.70956	5.3726984E-05
661.03608	5.3721094E-05
661.36258	5.3731636E-05
661.68906	5.3695231E-05
662.01552	5.3701370E-05
662.34196	5.3690008E-05
662.66839	5.3734518E-05
662.99479	5.3810411E-05
663.32117	5.3967588E-05
663.64753	5.4009618E-05
663.97387	5.4058147E-05
664.30019	5.4062265E-05
664.62649	5.4129503E-05
664.95277	5.4049816E-05
665.27903	5.3973932E-05
665.60526	5.3862234E-05
665.93148	5.3864772E-05
666.25768	5.3871158E-05
666.58386	5.3880865E-05
666.91002	5.3881413E-05
667.23616	5.3960859E-05
667.56228	5.3999042E-05
667.88838	5.4081428E-05
668.21446	5.4213943E-05
668.54052	5.4227033E-05
668.86656	5.4225004E-05
669.19258	5.4278502E-05
669.51857	5.4206284E-05
669.84455	5.4120006E-05
670.17051	5.4070979E-05
670.49645	5.4098276E-05
670.82237	5.4156410E-05
671.14827	5.4273102E-05
671.47414	5.4451598E-05
671.80000	5.4542236E-05
672.12584	5.4507028E-05
672.45166	5.4512195E-05
672.77746	5.4488871E-05
673.10323	5.4448026E-05
673.42899	5.4384933E-05
673.75473	5.4356704E-05
674.08045	5.4377874E-05
674.40614	5.4418666E-05
674.73182	5.4572802E-05
675.05748	5.4773890E-05
675.38311	5.5029724E-05
675.70873	5.5182278E-05
676.03433	5.5259457E-05
676.35990	5.5213703E-05
676.68546	5.5127165E-05
677.01100	5.4957744E-05
677.33651	5.4902175E-05
677.66201	5.4882779E-05
677.98748	5.4920634E-05
678.31294	5.5039109E-05
678.63838	5.5141509E-05
678.96379	5.5266941E-05
679.28919	5.5351166E-05
679.61456	5.5422869E-05
679.93992	5.5438748E-05
680.26525	5.5369396E-05
680.59057	5.5212249E-05
680.91586	5.4976022E-05
681.24114	5.4831676E-05
681.56639	5.4661722E-05
681.89163	5.4574858E-05
682.21684	5.4571552E-05
682.54203	5.4609525E-05
682.86721	5.4675621E-05
683.19236	5.4645494E-05
683.51750	5.4707630E-05
683.84261	5.4672763E-05
684.16770	5.4597344E-05
684.49278	5.4468008E-05
684.81783	5.4301274E-05
685.14286	5.4087052E-05
685.46788	5.3849110E-05
685.79287	5.3617880E-05
686.11784	5.3393432E-05
686.44280	5.3350296E-05
686.76773	5.3333037E-05
687.09264	5.3421744E-05
687.41753	5.3531276E-05
687.74240	5.3653524E-05
688.06726	5.3741299E-05
688.39209	5.3746607E-05
688.71690	5.3657472E-05
689.04169	5.3481479E-05
689.36646	5.3245052E-05
689.69121	5.3107121E-05
690.01594	5.3053939E-05
690.34065	5.3091105E-05
690.66535	5.3218095E-05
690.99002	5.3397999E-05
691.31467	5.3636859E-05
691.63930	5.3855333E-05
691.96391	5.3997839E-05
692.28850	5.4163534E-05
692.61307	5.4103263E-05
692.93762	5.3970501E-05
693.26215	5.3784590E-05
693.58665	5.3588573E-05
693.91114	5.3537090E-05
694.23561	5.3532418E-05
694.56006	5.3632302E-05
694.88449	5.3775892E-05
695.20890	5.3993020E-05
695.53329	5.4205957E-05
695.85765	5.4454615E-05
696.18200	5.4610081E-05
696.50633	5.4820532E-05
696.83064	5.4856616E-05
697.15492	5.4805314E-05
697.47919	5.4730513E-05
697.80344	5.4543825E-05
698.12767	5.4419804E-05
698.45187	5.4336499E-05
698.77606	5.4325328E-05
699.10022	5.4418672E-05
699.42437	5.4640050E-05
699.74850	5.4888105E-05
700.07260	5.5128522E-05
700.39669	5.5336734E-05
700.72075	5.5475028E-05
701.04480	5.5545316E-05
701.36882	5.5484786E-05
701.69283	5.5411218E-05
702.01681	5.5258514E-05
702.34078	5.5078724E-05
702.66472	5.4964503E-05
702.98865	5.4914355E-05
703.31255	5.4904892E-05
703.63643	5.5076514E-05
703.96030	5.5230116E-05
704.28414	5.5470632E-05
704.60796	5.5780213E-05
704.93177	5.6014118E-05
705.25555	5.6099285E-05
705.57931	5.6213737E-05
705.90305	5.6173219E-05
706.22678	5.5998766E-05
706.55048	5.5802625E-05
706.87416	5.5649271E-05
707.19782	5.5478176E-05
707.52146	5.5394850E-05
707.84508	5.5495386E-05
708.16868	5.5653776E-05
708.49226	5.5943723E-05
708.81582	5.6256982E-05
709.13936	5.6457852E-05
709.46288	5.6666319E-05
709.78638	5.6791659E-05
710.10986	5.6876880E-05
710.43332	5.6825330E-05
710.75676	5.6760036E-05
711.08018	5.6551243E-05
711.40358	5.6287592E-05
711.72696	5.6103649E-05
712.05032	5.6072493E-05
712.37365	5.6065592E-05
712.69697	5.6210095E-05
713.02027	5.6425596E-05
713.34355	5.6686540E-05
713.66680	5.7021763E-05
713.99004	5.7281048E-05
714.31326	5.7434490E-05
714.63645	5.7573797E-05
714.95963	5.7580733E-05
715.28279	5.7546898E-05
715.60592	5.7415853E-05
715.92904	5.7427223E-05
716.25213	5.7275622E-05
716.57521	5.7142691E-05
716.89826	5.7135932E-05
717.22130	5.7097245E-05
717.54431	5.7104034E-05
717.86731	5.7184855E-05
718.19028	5.7301818E-05
718.51323	5.7446100E-05
718.83617	5.7650703E-05
719.15908	5.7891554E-05
719.48197	5.8153993E-05
719.80484	5.8452619E-05
720.12770	5.8724963E-05
720.45053	5.8924209E-05
720.77334	5.8984949E-05
721.09613	5.9132015E-05
721.41890	5.9189152E-05
721.74166	5.9133114E-05
722.06439	5.9040273E-05
722.38710	5.8972507E-05
722.70979	5.8851348E-05
723.03246	5.8783147E-05
723.35511	5.8741080E-05
723.67774	5.8818447E-05
724.00035	5.8946438E-05
724.32294	5.9219211E-05
724.64550	5.9504454E-05
724.96805	5.9795591E-05
725.29058	6.0039460E-05
725.61309	6.0194689E-05
725.93558	6.0333400E-05
726.25804	6.0265555E-05
726.58049	6.0235329E-05
726.90292	6.0152241E-05
727.22533	5.9980300E-05
727.54771	5.9830619E-05
727.87008	5.9671888E-05
728.19242	5.9515064E-05
728.51475	5.9431450E-05
728.83706	5.9398108E-05
729.15934	5.9404914E-05
729.48161	5.9497323E-05
729.80385	5.9605503E-05
730.12607	5.9720271E-05
730.44828	5.9904125E-05
730.77046	6.0075265E-05
731.09263	6.0301147E-05
731.41477	6.0454611E-05
731.73689	6.0516883E-05
732.05899	6.0594185E-05
732.38108	6.0547664E-05
732.70314	6.0392300E-05
733.02518	6.0182131E-05
733.34720	6.0031540E-05
733.66920	5.9842242E-05
733.99118	5.9656623E-05
734.31314	5.9595539E-05
734.63508	5.9553646E-05
734.95700	5.9573511E-05
735.27890	5.9721384E-05
735.60078	5.9922143E-05
735.92264	6.0063148E-05
736.24448	6.0290564E-05
736.56630	6.0449897E-05
736.88810	6.0653999E-05
737.20988	6.0795703E-05
737.53163	6.0936258E-05
737.85337	6.0960340E-05
738.17509	6.0822987E-05
738.49678	6.0704906E-05
738.81846	6.0524178E-05
739.14012	6.0395916E-05
739.46175	6.0212489E-05
739.78337	6.0044841E-05
740.10496	5.9901851E-05
740.42654	5.9921916E-05
740.74809	5.9989192E-05
741.06963	6.0170591E-05
741.39114	6.0333763E-05
741.71264	6.0677883E-05
742.03411	6.0932541E-05
742.35556	6.1214459E-05
742.67699	6.1398613E-05
742.99841	6.1482313E-05
743.31980	6.1487510E-05
743.64117	6.1459275E-05
743.96252	6.1373894E-05
744.28385	6.1221993E-05
744.60516	6.1068203E-05
744.92645	6.0941102E-05
745.24772	6.0740612E-05
745.56897	6.0670160E-05
745.89020	6.0637250E-05
746.21141	6.0664763E-05
746.53260	6.0721532E-05
746.85377	6.0877277E-05
747.17492	6.1073936E-05
747.49605	6.1222810E-05
747.81715	6.1418329E-05
748.13824	6.1717853E-05
748.45931	6.1887712E-05
748.78035	6.2063623E-05
749.10138	6.2204752E-05
749.42239	6.2251636E-05
749.74337	6.2200481E-05
750.06434	6.2122486E-05
750.38528	6.1931815E-05
750.70621	6.1809303E-05
751.02711	6.1644242E-05
751.34799	6.1475802E-05
751.66886	6.1401138E-05
751.98970	6.1359000E-05
752.31052	6.1437302E-05
752.63133	6.1549928E-05
752.95211	6.1636270E-05
753.27287	6.1840205E-05
753.59361	6.2018944E-05
753.91433	6.2272973E-05
754.23503	6.2531886E-05
754.55571	6.2770783E-05
754.87637	6.2931014E-05
755.19701	6.3209931E-05
755.51763	6.3292243E-05
755.83823	6.3376380E-05
756.15881	6.3366476E-05
756.47937	6.3241004E-05
756.79991	6.3075593E-05
757.12042	6.2968275E-05
757.44092	6.2905776E-05
757.76140	6.2751368E-05
758.08185	6.2685698E-05
758.40229	6.2601676E-05
758.72271	6.2625216E-05
759.04310	6.2723205E-05
759.36348	6.2798918E-05
759.68383	6.2921657E-05
760.00416	6.3007703E-05
760.32448	6.3266318E-05
760.64477	6.3514595E-05
760.96505	6.3689604E-05
761.28530	6.3965421E-05
761.60553	6.4252850E-05
761.92574	6.4450199E-05
762.24593	6.4647519E-05
762.56611	6.4738841E-05
762.88626	6.4904377E-05
763.20639	6.4962954E-05
763.52650	6.4978609E-05
763.84659	6.4885064E-05
764.16666	6.4665036E-05
764.48670	6.4572484E-05
764.80673	6.4506337E-05
765.12674	6.4501091E-05
765.44673	6.4439565E-05
765.76670	6.4642542E-05
766.08664	6.4793263E-05
766.40657	6.5037993E-05
766.72648	6.5288526E-05
767.04636	6.5520832E-05
767.36623	6.5670686E-05
767.68607	6.5888996E-05
768.00590	6.6065775E-05
768.32570	6.6303852E-05
768.64549	6.6349253E-05
768.96525	6.6382654E-05
769.28499	6.6287180E-05
769.60471	6.5984615E-05
769.92442	6.5635303E-05
770.24410	6.5190759E-05
770.56376	6.4750437E-05
770.88340	6.4405740E-05
771.20302	6.4000717E-05
771.52262	6.3671115E-05
771.84220	6.3315310E-05
772.16176	6.3145295E-05
772.48130	6.2954048E-05
772.80082	6.2834860E-05
773.12032	6.2783160E-05
773.43979	6.2659493E-05
773.75925	6.2605865E-05
774.07869	6.2602519E-05
774.39811	6.2698667E-05
774.71750	6.2709759E-05
775.03688	6.2548919E-05
775.35623	6.2323768E-05
775.67557	6.2100865E-05
775.99488	6.1692197E-05
776.31418	6.1262607E-05
776.63345	6.0739904E-05
776.95270	6.0343431E-05
777.27194	5.9839572E-05
777.59115	5.9525659E-05
777.91034	5.9263378E-05
778.22951	5.9134551E-05
778.54866	5.9097909E-05
778.86779	5.9075964E-05
779.18690	5.9150240E-05
779.50599	5.9378287E-05
779.82506	5.9580706E-05
780.14411	5.9722619E-05
780.46314	5.9984256E-05
780.78215	6.0256112E-05
781.10114	6.0569693E-05
781.42010	6.0919808E-05
781.73905	6.1058944E-05
782.05798	6.1186198E-05
782.37688	6.1219820E-05
782.69577	6.1194030E-05
783.01463	6.1078970E-05
783.33348	6.0907972E-05
783.65230	6.0753701E-05
783.97110	6.0625687E-05
784.28989	6.0542086E-05
784.60865	6.0619723E-05
784.92739	6.0719619E-05
785.24611	6.0860265E-05
785.56482	6.1110853E-05
785.88350	6.1460354E-05
786.20216	6.1963163E-05
786.52080	6.2482198E-05
786.83942	6.2931328E-05
787.15802	6.3435719E-05
787.47660	6.3793964E-05
787.79515	6.4096120E-05
788.11369	6.4324982E-05
788.43221	6.4465577E-05
788.75071	6.4544575E-05
789.06918	6.4620063E-05
789.38764	6.4581718E-05
789.70607	6.4552384E-05
790.02449	6.4479529E-05
790.34288	6.4437583E-05
790.66126	6.4355391E-05
790.97961	6.4266527E-05
791.29794	6.4332255E-05
791.61626	6.4405208E-05
791.93455	6.4670444E-05
792.25282	6.4917768E-05
792.57107	6.5244678E-05
792.88930	6.5625131E-05
793.20751	6.6003835E-05
793.52570	6.6416225E-05
793.84387	6.6849870E-05
794.16202	6.7180532E-05
794.48015	6.7493474E-05
794.79826	6.7663061E-05
795.11635	6.7930831E-05
795.43441	6.8064266E-05
795.75246	6.8118551E-05
796.07049	6.8075237E-05
796.38849	6.8089302E-05
796.70648	6.8042040E-05
797.02444	6.7902135E-05
797.34238	6.7842154E-05
797.66031	6.7706749E-05
797.97821	6.7667920E-05
798.29609	6.7687579E-05
798.61396	6.7878628E-05
798.93180	6.7961174E-05
799.24962	6.8297816E-05
799.56742	6.8511082E-05
799.88520	6.8793101E-05
800.20296	6.9091229E-05
800.52070	6.9448684E-05
800.83842	6.9734559E-05
801.15612	7.0152426E-05
801.47379	7.0469096E-05
801.79145	7.0824571E-05
802.10909	7.1082043E-05
802.42670	7.1155922E-05
802.74430	7.1268971E-05
803.06187	7.1229499E-05
803.37943	7.1231893E-05
803.69696	7.0977922E-05
804.01448	7.0872026E-05
804.33197	7.0837068E-05
804.64944	7.0659710E-05
804.96689	7.0735643E-05
805.28433	7.0702808E-05
805.60174	7.0763456E-05
805.91913	7.0788668E-05
806.23650	7.0952055E-05
806.55385	7.1098833E-05
806.87118	7.1293072E-05
807.18849	7.1635810E-05
807.50577	7.1972269E-05
807.82304	7.2341127E-05
808.14029	7.2672539E-05
808.45751	7.3031641E-05
808.77472	7.3263776E-05
809.09191	7.3480217E-05
809.40907	7.3713963E-05
809.72622	7.3877410E-05
810.04334	7.4033940E-05
810.36044	7.3909583E-05
810.67753	7.3987931E-05
810.99459	7.4038210E-05
811.31163	7.3968703E-05
811.62865	7.3930598E-05
811.94565	7.3836212E-05
812.26263	7.3700678E-05
812.57959	7.3557569E-05
812.89653	7.3446404E-05
813.21345	7.3455958E-05
813.53035	7.3640212E-05
813.84722	7.3831291E-05
814.16408	7.4188966E-05
814.48092	7.4396238E-05
814.79773	7.4732950E-05
815.11453	7.5108793E-05
815.43130	7.5445908E-05
815.74806	7.5808018E-05
816.06479	7.6075374E-05
816.38150	7.6322390E-05
816.69820	7.6478199E-05
817.01487	7.6663661E-05
817.33152	7.6639253E-05
817.64815	7.6654387E-05
817.96476	7.6567755E-05
818.28135	7.6395510E-05
818.59792	7.6272294E-05
818.91447	7.6238612E-05
819.23100	7.6061371E-05
819.54751	7.5983727E-05
819.86399	7.5878529E-05
820.18046	7.5877792E-05
820.49691	7.5883259E-05
820.81333	7.5944018E-05
821.12974	7.6206173E-05
821.44612	7.6498938E-05
821.76248	7.6830813E-05
822.07883	7.7383576E-05
822.39515	7.7743810E-05
822.71145	7.8176065E-05
823.02773	7.8429646E-05
823.34399	7.8616630E-05
823.66023	7.8751863E-05
823.97645	7.8839524E-05
824.29265	7.8984935E-05
824.60883	7.8900003E-05
824.92499	7.8847806E-05
825.24113	7.8873162E-05
825.55724	7.8700576E-05
825.87334	7.8599919E-05
826.18942	7.8394389E-05
826.50547	7.8204794E-05
826.82151	7.7943652E-05
827.13752	7.7797871E-05
827.45351	7.7674376E-05
827.76949	7.7814055E-05
828.08544	7.7990504E-05
828.40137	7.8316241E-05
828.71728	7.8576946E-05
829.03317	7.8877118E-05
829.34904	7.9140482E-05
829.66489	7.9504969E-05
829.98072	7.9858846E-05
830.29653	8.0132164E-05
830.61231	8.0518036E-05
830.92808	8.0829474E-05
831.24383	8.1066642E-05
831.55955	8.1331252E-05
831.87526	8.1245239E-05
832.19094	8.1260265E-05
832.50661	8.1123996E-05
832.82225	8.0900823E-05
833.13787	8.0528684E-05
833.45348	8.0240609E-05
833.76906	8.0040147E-05
834.08462	7.9909075E-05
834.40016	7.9739804E-05
834.71568	7.9706316E-05
835.03118	7.9741591E-05
835.34666	7.9771837E-05
835.66211	8.0025176E-05
835.97755	8.0354274E-05
836.29297	8.0780114E-05
836.60836	8.1261363E-05
836.92374	8.1751401E-05
837.23910	8.1919873E-05
837.55443	8.2312994E-05
837.86974	8.2646996E-05
838.18504	8.2438003E-05
838.50031	8.2393787E-05
838.81556	8.2462221E-05
839.13079	8.2432748E-05
839.44600	8.2463563E-05
839.76119	8.2336627E-05
840.07636	8.2196127E-05
840.39151	8.2007073E-05
840.70664	8.1704849E-05
841.02175	8.1306596E-05
841.33683	8.0979160E-05
841.65190	8.0687668E-05
841.96695	8.0671940E-05
842.28197	8.0780562E-05
842.59697	8.0994036E-05
842.91196	8.1200554E-05
843.22692	8.1577914E-05
843.54186	8.1937278E-05
843.85679	8.2401347E-05
844.17169	8.2742509E-05
844.48657	8.3186932E-05
844.80143	8.3639546E-05
845.11627	8.4162943E-05
845.43109	8.4151935E-05
845.74588	8.4100016E-05
846.06066	8.3808091E-05
846.37542	8.3491677E-05
846.69015	8.2981541E-05
847.00487	8.2366908E-05
847.31956	8.1934571E-05
847.63424	8.1714040E-05
847.94889	8.1636478E-05
848.26352	8.1928556E-05
848.57814	8.2198715E-05
848.89273	8.2592189E-05
849.20730	8.3045271E-05
849.52185	8.3486579E-05
849.83638	8.3902087E-05
850.15089	8.4165959E-05
850.46538	8.4320475E-05
850.77984	8.4311671E-05
851.09429	8.4033950E-05
851.40872	8.3578007E-05
851.72312	8.3117047E-05
852.03751	8.2580334E-05
852.35187	8.1916548E-05
852.66622	8.1470662E-05
852.98054	8.1531645E-05
853.29484	8.1986147E-05
853.60912	8.2624775E-05
853.92338	8.3487920E-05
854.23763	8.4052793E-05
854.55184	8.4297904E-05
854.86604	8.4273172E-05
855.18022	8.3860233E-05
855.49438	8.3365812E-05
855.80852	8.2913889E-05
856.12263	8.2466581E-05
856.43673	8.1977041E-05
856.75080	8.1580100E-05
857.06486	8.1344539E-05
857.37889	8.1465608E-05
857.69291	8.1873072E-05
858.00690	8.2685490E-05
858.32087	8.3461334E-05
858.63482	8.4073241E-05
858.94875	8.4278105E-05
859.26266	8.4083308E-05
859.57655	8.3848378E-05
859.89042	8.3540214E-05
860.20427	8.3302337E-05
860.51809	8.3309276E-05
860.83190	8.3361151E-05
861.14568	8.3322279E-05
861.45945	8.3356319E-05
861.77319	8.3482817E-05
862.08692	8.3639608E-05
862.40062	8.4141915E-05
862.71430	8.5228488E-05
