Jaz Data File
++++++++++++++++++++++++++++++++++++
Date: Mon Apr 25 12:45:18 2016
User: jaz
Dark Spectrum Present: Yes
Reference Spectrum Present: Yes
Processed Spectrum Present: Yes
Spectrometers: JAZA3098
Integration Time (usec): 933000 (JAZA3098)
Spectra Averaged: 1 (JAZA3098)
Boxcar Smoothing: 0 (JAZA3098)
Correct for Electrical Dark: No (JAZA3098)
Strobe/Lamp Enabled: Yes (JAZA3098)
Correct for Detector Non-linearity: No (JAZA3098)
Correct for Stray Light: No (JAZA3098)
Number of Pixels in Processed Spectrum: 2048
>>>>>Begin Processed Spectral Data<<<<<
W	D	R	S	P
190.313904	0.000000	0.000000	0.000000	0.000000
190.695511	0.000000	0.000000	0.000000	0.000000
191.077087	1195.448853	1163.811279	1057.599365	-0.639202
191.458633	1152.512085	1082.457397	1093.756592	0.076389
191.840149	1116.354858	1238.385498	1134.433472	0.829304
192.221634	1147.992432	1224.826538	1166.071045	0.628389
192.603088	1227.086426	1249.684692	1315.219727	-0.591065
192.984528	1292.621338	1346.857300	1351.376953	-0.034762
193.365921	1281.322266	1288.101685	1274.542725	nan
193.747284	1258.723999	1220.306885	1265.503418	nan
194.128616	1283.582031	1229.346191	1258.723999	0.338820
194.509918	1290.361572	1254.204346	1297.140991	nan
194.891190	1301.660645	1281.322266	1290.361572	0.255274
195.272446	1247.424805	1229.346191	1292.621338	nan
195.653656	1468.887939	1444.029785	1380.754639	-0.549671
196.034836	1326.518799	1267.763306	1247.424805	-0.129095
196.416000	1270.023071	1179.630005	1224.826538	0.301030
196.797104	1360.416260	1285.841919	1283.582031	-0.012965
197.178192	1303.920532	1369.455566	1285.841919	nan
197.559265	1258.723999	1245.165039	1274.542725	nan
197.940292	1247.424805	1274.542725	1247.424805	inf
198.321304	1213.527466	1251.944458	1292.621338	-0.313619
198.702271	1267.763306	1281.322266	1326.518799	-0.636822
199.083221	1312.959839	1197.708618	1312.959839	inf
199.464111	1258.723999	1288.101685	1247.424805	nan
199.844986	1238.385498	1326.518799	1360.416260	-0.141329
200.225830	1206.747925	1285.841919	1288.101685	-0.012234
200.606659	1215.787231	1270.023071	1319.739380	-0.282547
200.987427	1468.887939	1378.494873	1444.029785	0.560666
201.368195	1227.086426	1267.763306	1281.322266	-0.124939
201.748917	1265.503418	1299.400879	1326.518799	-0.255272
202.129608	1247.424805	1267.763306	1290.361572	-0.324510
202.510284	1315.219727	1260.983765	1251.944458	-0.066947
202.890915	1281.322266	1274.542725	1231.606079	-0.865297
203.271515	1238.385498	1276.802612	1351.376953	-0.468521
203.652100	1258.723999	1274.542725	1299.400879	-0.410176
204.032623	1258.723999	1236.125732	1238.385498	0.045756
204.413147	1231.606079	1209.007813	1231.606079	inf
204.793625	1312.959839	1317.479492	1308.440186	nan
205.174088	1256.464111	1265.503418	1240.645386	nan
205.554504	1220.306885	1231.606079	1245.165039	-0.342421
205.934906	1166.071045	1202.228271	1303.920532	-0.581210
206.315247	1163.811279	1229.346191	1249.684692	-0.117386
206.695587	1254.204346	1281.322266	1209.007813	nan
207.075882	1290.361572	1355.896606	1364.935913	-0.056116
207.456146	1206.747925	1288.101685	1247.424805	0.301030
207.836380	1256.464111	1380.754639	1321.999146	0.277965
208.216599	1242.905151	1274.542725	1242.905151	inf
208.596771	1193.188965	1202.228271	1260.983765	-0.875061
208.976913	1328.778687	1403.352905	1290.361572	nan
209.357025	1425.951172	1405.612793	1484.706787	nan
209.737106	1227.086426	1238.385498	1184.149658	nan
210.117157	1292.621338	1258.723999	1249.684692	-0.102662
210.497177	1233.865845	1251.944458	1220.306885	nan
210.877167	1299.400879	1267.763306	1279.062378	0.191884
211.257126	1147.992432	1236.125732	1206.747925	0.176092
211.637070	1301.660645	1340.077759	1373.975220	-0.274701
212.016968	1231.606079	1301.660645	1319.739380	-0.099704
212.396835	1209.007813	1294.881226	1276.802612	0.102662
212.776672	1181.889893	1204.488159	1263.243652	-0.556302
213.156464	1215.787231	1215.787231	1299.400879	0.000000
213.536255	1166.071045	1263.243652	1213.527466	0.311249
213.916000	1297.140991	1209.007813	1331.038452	nan
214.295700	1215.787231	1260.983765	1270.023071	-0.079181
214.675400	1288.101685	1315.219727	1297.140991	0.477123
215.055038	1224.826538	1274.542725	1319.739380	-0.280827
215.434662	1279.062378	1256.464111	1290.361572	nan
215.814240	1419.171753	1346.857300	1290.361572	-0.250725
216.193787	1294.881226	1224.826538	1213.527466	-0.064940
216.573334	1274.542725	1312.959839	1342.337646	-0.246672
216.952820	1270.023071	1272.282959	1260.983765	nan
217.332275	1258.723999	1224.826538	1202.228271	-0.221848
217.711716	1407.872559	1358.156372	1369.455566	0.111974
218.091125	1242.905151	1274.542725	1231.606079	nan
218.470505	1457.588867	1471.147827	1378.494873	nan
218.849854	1267.763306	1319.739380	1229.346191	nan
219.229156	1229.346191	1312.959839	1283.582031	0.187991
219.608444	1263.243652	1294.881226	1247.424805	nan
219.987671	1355.896606	1392.053833	1344.597412	nan
220.366898	1333.298340	1369.455566	1310.700073	nan
220.746094	1288.101685	1358.156372	1335.558105	0.169142
221.125244	1328.778687	1410.132446	1328.778687	inf
221.504364	1328.778687	1324.259033	1290.361572	-0.929420
221.883469	1236.125732	1251.944458	1254.204346	-0.057994
222.262512	1281.322266	1272.282959	1258.723999	-0.397940
222.641556	1152.512085	1220.306885	1317.479492	-0.386202
223.020554	1306.180420	1331.038452	1215.787231	nan
223.399521	1179.630005	1299.400879	1238.385498	0.309303
223.778473	1249.684692	1245.165039	1294.881226	nan
224.157364	1175.110352	1301.660645	1181.889893	1.271063
224.536240	1215.787231	1222.566772	1265.503418	-0.865297
224.915085	1197.708618	1256.464111	1254.204346	0.017033
225.293900	1195.448853	1303.920532	1258.723999	0.234083
225.672684	1326.518799	1303.920532	1328.778687	nan
226.051437	1319.739380	1297.140991	1319.739380	inf
226.430161	1292.621338	1218.047119	1202.228271	-0.083546
226.808838	1251.944458	1267.763306	1222.566772	nan
227.187500	1371.715332	1412.392212	1301.660645	nan
227.566132	1274.542725	1342.337646	1270.023071	nan
227.944717	1308.440186	1328.778687	1249.684692	nan
228.323288	1274.542725	1407.872559	1308.440186	0.594760
228.701813	1272.282959	1321.999146	1297.140991	0.301031
229.080307	1231.606079	1326.518799	1218.047119	nan
229.458786	1279.062378	1358.156372	1342.337646	0.096910
229.837234	1306.180420	1324.259033	1326.518799	-0.051151
230.215637	1258.723999	1380.754639	1238.385498	nan
230.594009	1292.621338	1455.328979	1301.660645	1.255273
230.972351	1288.101685	1371.715332	1290.361572	1.568190
231.350662	1229.346191	1387.534180	1265.503418	0.640978
231.728958	1220.306885	1380.754639	1274.542725	0.471047
232.107193	1265.503418	1410.132446	1312.959839	0.483960
232.485413	1227.086426	1324.259033	1222.566772	nan
232.863602	1154.771851	1362.676025	1238.385498	0.395586
233.241760	1213.527466	1337.817993	1245.165039	0.594235
233.619873	1209.007813	1335.558105	1251.944458	0.469435
233.997986	1292.621338	1525.383667	1360.416260	0.535716
234.376038	1272.282959	1378.494873	1251.944458	nan
234.754074	1292.621338	1502.785400	1297.140991	1.667453
235.132065	1247.424805	1360.416260	1256.464111	1.096910
235.510025	1274.542725	1410.132446	1312.959839	0.547702
235.887970	1274.542725	1317.479492	1197.708618	nan
236.265869	1326.518799	1448.549561	1292.621338	nan
236.643738	1331.038452	1421.431519	1324.259033	nan
237.021576	1202.228271	1371.715332	1227.086426	0.833668
237.399384	1175.110352	1333.298340	1256.464111	0.288796
237.777161	1224.826538	1491.486206	1297.140991	0.566732
238.154892	1231.606079	1416.911865	1218.047119	nan
238.532623	1197.708618	1448.549561	1285.841919	0.454258
238.910309	1218.047119	1410.132446	1231.606079	1.151268
239.287949	1222.566772	1439.510132	1240.645386	1.079181
239.665573	1245.165039	1419.171753	1206.747925	nan
240.043167	1227.086426	1473.407593	1233.865845	1.560309
240.420715	1206.747925	1421.431519	1249.684692	0.698969
240.798233	1274.542725	1459.848633	1301.660645	0.834633
241.175735	1206.747925	1462.108521	1310.700073	0.390320
241.553207	1177.370239	1416.911865	1154.771851	nan
241.930634	1272.282959	1450.809326	1258.723999	nan
242.308014	1251.944458	1484.706787	1238.385498	nan
242.685394	1231.606079	1520.864014	1265.503418	0.931120
243.062729	1292.621338	1563.800659	1292.621338	inf
243.440033	1260.983765	1615.776733	1265.503418	1.894870
243.817307	1283.582031	1746.846802	1349.117065	0.849356
244.194534	1270.023071	1683.571533	1396.573486	0.514263
244.571747	1319.739380	1753.626221	1385.274292	0.820904
244.948929	1209.007813	1685.831421	1439.510132	0.315682
245.326065	1179.630005	1706.169800	1346.857300	0.498124
245.703186	1285.841919	1622.556274	1410.132446	0.432824
246.080261	1224.826538	1649.674194	1324.259033	0.630705
246.457306	1224.826538	1572.839966	1281.322266	0.789580
246.834320	1256.464111	1715.209106	1371.715332	0.599926
247.211304	1227.086426	1712.949341	1419.171753	0.403020
247.588257	1211.267578	1778.484375	1410.132446	0.455191
247.965195	1321.999146	1943.451782	1383.014526	1.007969
248.342087	1326.518799	1970.569702	1392.053833	0.992447
248.718933	1157.031738	2013.506348	1421.431519	0.510453
249.095764	1202.228271	2024.805542	1441.770020	0.535796
249.472549	1231.606079	2158.135254	1378.494873	0.799870
249.849319	1224.826538	2036.104736	1362.676025	0.769765
250.226044	1319.739380	1997.687622	1369.455566	1.134699
250.602737	1279.062378	1855.318481	1360.416260	0.850237
250.979401	1315.219727	1789.783447	1319.739380	2.021189
251.356033	1376.234985	1825.940674	1376.234985	inf
251.732635	1274.542725	1731.027954	1288.101685	1.527200
252.109207	1340.077759	1773.964722	1355.896606	1.438202
252.485748	1335.558105	1780.744141	1419.171753	0.726264
252.862244	1161.551392	1728.768066	1308.440186	0.586760
253.238724	1303.920532	1783.004028	1321.999146	1.423246
253.615158	1294.881226	1776.224487	1355.896606	0.897016
253.991577	1306.180420	1801.082642	1340.077759	1.164354
254.367950	1170.590698	1798.822754	1319.739380	0.624501
254.744308	1373.975220	1825.940674	1428.211060	0.920819
255.120621	1263.243652	1749.106567	1344.597412	0.776136
255.496902	1240.645386	1710.689453	1303.920532	0.870905
255.873154	1184.149658	1721.988647	1276.802612	0.763793
256.249390	1249.684692	1656.453613	1380.754639	0.491845
256.625549	1195.448853	1672.272461	1319.739380	0.583920
257.001709	1317.479492	1853.058594	1509.564819	0.445329
257.377838	1229.346191	1767.185181	1328.778687	0.733124
257.753937	1202.228271	1783.004028	1405.612793	0.455691
258.129974	1168.330933	1647.414307	1315.219727	0.513422
258.506012	1211.267578	1755.886108	1471.147827	0.321319
258.881989	1254.204346	1927.632935	1405.612793	0.648141
259.257935	1254.204346	1943.451782	1387.534180	0.713448
259.633911	1224.826538	1981.868774	1398.833252	0.638554
260.009766	1229.346191	2063.222656	1437.250366	0.603239
260.385651	1364.935913	2345.701172	1559.281006	0.702991
260.761475	1254.204346	2352.480469	1428.211060	0.800146
261.137299	1260.983765	2429.314697	1498.265747	0.692301
261.513062	1211.267578	2481.290771	1572.839966	0.545616
261.888763	1376.234985	2788.627197	1575.099854	0.851397
262.264496	1211.267578	2544.565918	1491.486206	0.677430
262.640137	1231.606079	2445.133545	1493.746094	0.665516
263.015808	1175.110352	2300.504395	1360.416260	0.783415
263.391388	1306.180420	2255.307861	1471.147827	0.759926
263.766998	1376.234985	2325.362549	1532.163086	0.784400
264.142517	1299.400879	2162.655029	1480.187134	0.678973
264.518036	1141.212891	1990.908081	1396.573486	0.522109
264.893524	1263.243652	2167.174561	1432.730713	0.726999
265.268951	1360.416260	2131.017334	1538.942627	0.635127
265.644379	1224.826538	1929.892822	1310.700073	0.914371
266.019745	1218.047119	1934.412476	1346.857300	0.745184
266.395111	1260.983765	2110.678955	1378.494873	0.859184
266.770386	1288.101685	2056.443115	1434.990479	0.718566
267.145691	1245.165039	2020.285889	1342.337646	0.901826
267.520966	1245.165039	2076.781494	1412.392212	0.696616
267.896149	1285.841919	2205.591797	1387.534180	0.956382
268.271362	1231.606079	2185.253418	1423.691406	0.695894
268.646515	1209.007813	2194.292725	1421.431519	0.666359
269.021606	1206.747925	2244.008789	1398.833252	0.732394
269.396729	1290.361572	2196.552490	1459.848633	0.728083
269.771790	1303.920532	2212.371338	1419.171753	0.896656
270.146790	1258.723999	2282.425781	1403.352905	0.849918
270.521790	1355.896606	2494.849609	1613.516968	0.645526
270.896759	1263.243652	2271.126709	1401.093140	0.864005
271.271667	1242.905151	2280.166016	1466.628174	0.666177
271.646545	1170.590698	2357.000244	1477.927246	0.586620
272.021423	1231.606079	2458.692383	1473.407593	0.705416
272.396271	1222.566772	2580.723145	1455.328979	0.766037
272.771027	1213.527466	2621.400146	1477.927246	0.726302
273.145813	1263.243652	2754.729980	1534.422974	0.740363
273.520538	1279.062378	2888.059570	1613.516968	0.682218
273.895233	1283.582031	2779.587891	1529.903320	0.783431
274.269897	1303.920532	2643.998291	1566.060547	0.708597
274.644501	1220.306885	2555.864990	1468.887939	0.730195
275.019135	1281.322266	2594.281982	1439.510132	0.919078
275.393677	1258.723999	2451.912842	1473.407593	0.744910
275.768250	1163.811279	2485.810303	1425.951172	0.702698
276.142700	1229.346191	2476.770996	1471.147827	0.712555
276.517212	1276.802612	2449.653076	1423.691406	0.902254
276.891632	1299.400879	2542.306152	1534.422974	0.723329
277.266022	1222.566772	2562.644531	1586.398926	0.566229
277.640381	1297.140991	2664.336670	1595.438354	0.661181
278.014740	1290.361572	2684.675293	1618.036621	0.628917
278.389038	1220.306885	2684.675293	1566.060547	0.626884
278.763336	1209.007813	2664.336670	1541.202393	0.641569
279.137543	1274.542725	2711.793213	1529.903320	0.750379
279.511780	1270.023071	2668.856445	1500.525513	0.783090
279.885925	1292.621338	2693.714600	1570.580200	0.702487
280.260101	1199.968506	2662.076904	1597.698120	0.565392
280.634186	1240.645386	2822.524658	1563.800659	0.689762
281.008301	1340.077759	2908.398193	1665.492920	0.682997
281.382294	1270.023071	2695.974365	1588.658813	0.650810
281.756348	1211.267578	2820.264893	1593.178467	0.624593
282.130280	1224.826538	2910.657959	1604.477661	0.647429
282.504272	1260.983765	3199.916016	1665.492920	0.680634
282.878143	1258.723999	3285.789307	1611.257080	0.759668
283.252014	1251.944458	3353.584229	1613.516968	0.764363
283.625854	1367.195679	3382.961914	1844.019287	0.626082
283.999664	1179.630005	3333.245850	1663.233154	0.648679
284.373444	1218.047119	3260.931152	1649.674194	0.675135
284.747192	1218.047119	3358.103760	1670.012573	0.675320
285.120941	1328.778687	3450.756836	1783.004028	0.669470
285.494629	1227.086426	3256.411621	1706.169800	0.626941
285.868256	1342.337646	3401.040527	1699.390381	0.760861
286.241882	1333.298340	3534.370361	1812.381714	0.662223
286.615448	1290.361572	3697.077881	1726.508301	0.741792
286.988983	1263.243652	3649.621582	1663.233154	0.775691
287.362518	1385.274292	3823.628418	1884.696289	0.688629
287.736023	1270.023071	3825.888184	1834.979980	0.655523
288.109467	1251.944458	3706.117188	1812.381714	0.641378
288.482880	1321.999146	3807.809570	1812.381714	0.704933
288.856262	1378.494873	3769.392578	1839.499634	0.714856
289.229584	1265.503418	3604.425049	1796.562988	0.643872
289.602936	1276.802612	3579.566895	1751.366455	0.685955
289.976227	1326.518799	3550.189209	1771.704834	0.698529
290.349457	1290.361572	3669.959961	1830.460327	0.644031
290.722687	1211.267578	3749.053955	1810.121948	0.627134
291.095886	1184.149658	3821.368408	1907.294556	0.561921
291.469025	1190.929199	3959.218018	1810.121948	0.650386
291.842133	1220.306885	4126.445313	1893.735596	0.635025
292.215240	1292.621338	4151.303223	2076.781494	0.561761
292.588287	1306.180420	4058.650391	1886.956055	0.675714
292.961304	1206.747925	4078.988770	1918.593628	0.605835
293.334320	1204.488159	4027.012695	1932.152588	0.588707
293.707245	1231.606079	4112.886230	1950.231201	0.603083
294.080170	1236.125732	3880.124023	1914.073975	0.591065
294.453064	1256.464111	3918.541016	1943.451782	0.588272
294.825897	1247.424805	4108.366699	1911.814209	0.634086
295.198730	1202.228271	4436.041504	2004.467041	0.605411
295.571533	1179.630005	4408.923828	1927.632935	0.635204
295.944275	1260.983765	4474.458496	2022.545654	0.625270
296.317017	1346.857300	4700.441406	2110.678955	0.642517
296.689697	1292.621338	4833.771484	2006.726929	0.695382
297.062317	1315.219727	4695.921875	2081.301270	0.644732
297.434967	1249.684692	4912.865234	2259.827637	0.559475
297.807526	1260.983765	5039.415527	2223.670410	0.593827
298.180115	1184.149658	5120.769531	2228.189941	0.576406
298.552612	1168.330933	5150.146973	2180.733643	0.594728
298.925110	1285.841919	5188.563965	2221.410645	0.620292
299.297546	1247.424805	5145.627441	2187.513184	0.617696
299.669983	1337.817993	4910.605469	2146.836182	0.645049
300.042358	1258.723999	4838.291016	2271.126709	0.548477
300.414734	1267.763306	4671.063477	2056.443115	0.635000
300.787048	1190.929199	4515.135742	2097.120117	0.564468
301.159332	1274.542725	4530.954590	2074.521729	0.609661
301.531616	1204.488159	4332.089355	2085.820801	0.550071
301.903809	1227.086426	4472.198730	2110.678955	0.564978
302.276031	1224.826538	4465.419434	2099.379883	0.568838
302.648163	1274.542725	4427.002441	2088.080811	0.588272
303.020294	1249.684692	4445.081055	2022.545654	0.616423
303.392395	1238.385498	4415.703125	2029.325195	0.603917
303.764435	1186.409546	4372.766602	2097.120117	0.543914
304.136444	1197.708618	4363.727051	2090.340576	0.549841
304.508453	1267.763306	4271.074219	2196.552490	0.509683
304.880371	1344.597412	4250.735840	2112.938721	0.577762
305.252319	1229.346191	4126.445313	2076.781494	0.533857
305.624207	1337.817993	4142.264160	2110.678955	0.559746
305.996033	1240.645386	4169.381836	1999.947388	0.586266
306.367859	1159.291626	4126.445313	2013.506348	0.540773
306.739655	1181.889893	4121.925781	2027.065430	0.541406
307.111389	1184.149658	4133.224609	1990.908081	0.562942
307.483124	1175.110352	4191.979980	2094.860107	0.515887
307.854828	1204.488159	4201.019531	2094.860107	0.527047
308.226471	1177.370239	4332.089355	2063.222656	0.551599
308.598083	1242.905151	4262.034668	2067.742188	0.563514
308.969666	1222.566772	4268.814453	2088.080811	0.546491
309.341187	1242.905151	4399.884277	2210.111328	0.513753
309.712738	1152.512085	4598.749023	2092.600342	0.564176
310.084167	1254.204346	4671.063477	2158.135254	0.577492
310.455658	1315.219727	4668.803711	2282.425781	0.539990
310.827057	1306.180420	4885.747070	2291.465088	0.560269
311.198456	1242.905151	4964.841309	2280.166016	0.554881
311.569794	1206.747925	4883.487305	2357.000244	0.504670
311.941132	1199.968506	4815.692871	2293.725098	0.519275
312.312408	1193.188965	4962.581543	2262.087402	0.547335
312.683655	1231.606079	4942.243164	2329.882324	0.528737
313.054840	1218.047119	4817.952637	2248.528564	0.543251
313.426056	1256.464111	4856.369629	2300.504395	0.537574
313.797180	1303.920532	4960.321777	2262.087402	0.581613
314.168304	1265.503418	4668.803711	2325.362549	0.506652
314.539368	1188.669312	4754.677246	2169.434570	0.560617
314.910431	1240.645386	4716.260254	2221.410645	0.549467
315.281433	1224.826538	4768.236328	2241.749023	0.542134
315.652435	1197.708618	4994.219238	2368.299316	0.510980
316.023346	1240.645386	4971.620605	2228.189941	0.577266
316.394287	1265.503418	4854.109863	2219.150635	0.575538
316.765137	1247.424805	4795.354004	2244.008789	0.551461
317.135986	1301.660645	4813.432617	2350.220703	0.524933
317.506775	1188.669312	4582.930176	2307.283936	0.482065
317.877594	1373.975220	4702.701172	2368.299316	0.524750
318.248291	1283.582031	4481.238281	2214.631104	0.535859
318.619019	1279.062378	4467.679199	2314.063477	0.488662
318.989655	1265.503418	4542.253418	2280.166016	0.509122
319.360321	1290.361572	4693.662109	2273.386475	0.539336
319.730896	1299.400879	4607.788574	2176.214111	0.576709
320.101501	1215.787231	4729.819336	2255.307861	0.528973
320.472015	1267.763306	4673.323730	2280.166016	0.526835
320.842529	1251.944458	4603.269043	2142.316650	0.575645
321.213013	1288.101685	4596.489258	2280.166016	0.523077
321.583466	1303.920532	4580.670410	2216.890869	0.554987
321.953827	1247.424805	4510.615723	2201.072021	0.534255
322.324188	1303.920532	4587.450195	2282.425781	0.525778
322.694519	1154.771851	4610.048340	2173.954102	0.530231
323.064819	1251.944458	4630.386719	2151.355957	0.574758
323.435059	1315.219727	4709.480957	2305.024170	0.535196
323.805328	1267.763306	4991.958984	2359.260010	0.533010
324.175507	1258.723999	5019.077148	2334.401855	0.543546
324.545685	1260.983765	5181.784668	2347.960938	0.557154
324.915802	1224.826538	5321.894043	2445.133545	0.526004
325.285919	1267.763306	5561.435547	2479.031006	0.549589
325.655975	1211.267578	5649.568848	2497.109619	0.538029
326.025970	1242.905151	5459.743652	2451.912842	0.542558
326.395966	1276.802612	5547.876953	2521.967529	0.535310
326.765930	1238.385498	5504.939941	2447.393311	0.547648
327.135864	1306.180420	5493.641113	2442.873535	0.566308
327.505737	1267.763306	5432.625488	2474.511230	0.537984
327.875580	1290.361572	5437.145020	2521.967529	0.527240
328.245422	1459.848633	5342.232422	2596.541992	0.533455
328.615204	1292.621338	5170.485352	2408.976318	0.540790
328.984955	1303.920532	5028.116211	2422.535156	0.522352
329.354675	1242.905151	5263.138672	2445.133545	0.524264
329.724365	1184.149658	5147.887207	2325.362549	0.540738
330.093994	1227.086426	5073.312988	2424.794922	0.506684
330.463623	1251.944458	5197.603516	2384.118164	0.542207
330.833191	1222.566772	5195.343750	2494.849609	0.494511
331.202759	1227.086426	5204.382813	2442.873535	0.514730
331.572266	1179.630005	5263.138672	2399.937012	0.524564
331.941711	1179.630005	5373.870117	2485.810303	0.506650
332.311188	1279.062378	5281.217285	2442.873535	0.536411
332.680573	1267.763306	5389.688965	2485.810303	0.529436
333.049988	1315.219727	5448.444336	2528.747070	0.532239
333.419312	1251.944458	5800.977539	2639.478760	0.515675
333.788635	1251.944458	5742.222168	2585.242676	0.527346
334.157867	1317.479492	5891.370605	2571.683838	0.561917
334.527130	1193.188965	6067.637207	2662.076904	0.520937
334.896332	1279.062378	6106.054199	2772.808594	0.509400
335.265503	1231.606079	5959.165527	2675.635986	0.515061
335.634613	1321.999146	6191.927734	2705.013672	0.546696
336.003723	1279.062378	6142.211426	2831.563965	0.495886
336.372772	1369.455566	5988.542969	2811.225586	0.505660
336.741821	1247.424805	5861.992676	2650.777832	0.516964
337.110809	1233.865845	5866.512695	2662.076904	0.511037
337.479797	1335.558105	5871.032227	2605.581299	0.552811
337.848724	1335.558105	5907.189453	2723.092285	0.517828
338.217590	1236.125732	6076.676270	2610.100830	0.546916
338.586487	1213.527466	5859.732910	2601.061523	0.524855
338.955292	1224.826538	5925.268066	2567.164063	0.544277
339.324036	1186.409546	5830.355469	2634.958984	0.505954
339.692841	1229.346191	5977.244141	2610.100830	0.536385
340.061523	1188.669312	5830.355469	2569.424072	0.526559
340.430237	1236.125732	5895.890137	2664.336670	0.513572
340.798859	1342.337646	6115.093750	2671.116211	0.555317
341.167511	1260.983765	5871.032227	2569.424072	0.546952
341.536072	1211.267578	5832.615234	2555.864990	0.536176
341.904663	1211.267578	5961.425293	2630.439453	0.524673
342.273102	1272.282959	6108.313965	2628.179443	0.552263
342.641632	1378.494873	6440.508789	2851.902344	0.536000
343.010040	1227.086426	6011.141602	2582.982910	0.547570
343.378510	1105.055664	6304.918945	2720.832520	0.507611
343.746826	1288.101685	6198.707031	2564.904297	0.585011
344.115204	1242.905151	6237.124023	2806.705811	0.504286
344.483490	1240.645386	6243.903809	2775.068359	0.513308
344.851776	1288.101685	6542.201172	2711.793213	0.567082
345.220001	1283.582031	6641.633301	2849.642578	0.534198
345.588196	1263.243652	6831.458984	2829.304199	0.550907
345.956329	1312.959839	6874.395508	2854.162354	0.557327
346.324524	1251.944458	6998.686035	2935.516113	0.533190
346.692596	1179.630005	6910.552734	2806.705811	0.546817
347.060669	1349.117065	7075.520020	3043.987793	0.528745
347.428680	1251.944458	6761.404297	2838.343506	0.540697
347.796692	1224.826538	6632.594238	2942.295654	0.498129
348.164612	1199.968506	6451.807617	2818.005127	0.511323
348.532562	1306.180420	6558.019531	2860.941650	0.528648
348.900421	1342.337646	6560.279785	2910.657959	0.522065
349.268311	1245.165039	6390.792480	2707.273438	0.546459
349.636108	1256.464111	6356.895020	2754.729980	0.532018
350.003906	1251.944458	6379.493164	2777.328125	0.526531
350.371643	1270.023071	6404.351563	2779.587891	0.531632
350.739380	1337.817993	6774.963379	2865.461426	0.551349
351.107025	1184.149658	6533.161621	2811.225586	0.516866
351.474701	1222.566772	6614.515625	2695.974365	0.563423
351.842285	1193.188965	6643.893066	2820.264893	0.525045
352.209900	1195.448853	6865.356445	2736.651123	0.565716
352.577393	1285.841919	6817.899902	2960.374268	0.518993
352.944946	1209.007813	6709.428223	2799.926514	0.538748
353.312378	1299.400879	6860.836426	2847.382813	0.555421
353.679840	1152.512085	6930.891113	2768.288818	0.553425
354.047211	1229.346191	7147.834961	2955.854492	0.535042
354.414612	1157.031738	7254.046875	2980.712646	0.524168
354.781891	1195.448853	7486.809082	3010.090332	0.539954
355.149231	1256.464111	7491.328613	2926.476807	0.572107
355.516449	1283.582031	7719.571289	3014.610107	0.570311
355.883698	1245.165039	7728.610352	3032.688721	0.559554
356.250854	1202.228271	7721.831055	3206.695313	0.512222
356.618011	1274.542725	8404.298828	3213.474854	0.565512
356.985168	1247.424805	8372.661133	3247.372314	0.551781
357.352234	1301.660645	8625.761719	3364.883301	0.550208
357.719269	1229.346191	8921.799805	3468.835449	0.535916
358.086304	1265.503418	9005.413086	3464.315674	0.546548
358.453278	1231.606079	9324.048828	3593.125977	0.534888
358.820190	1170.590698	9493.536133	3543.409668	0.545012
359.187103	1195.448853	9762.455078	3525.331055	0.565495
359.554016	1157.031738	9606.527344	3599.905273	0.538930
359.920837	1204.488159	9186.199219	3475.614990	0.545855
360.287628	1199.968506	9391.843750	3491.433594	0.553270
360.654388	1179.630005	9520.653320	3394.260986	0.575918
361.021149	1240.645386	9769.234375	3570.527588	0.563543
361.387848	1227.086426	10135.327148	3796.510498	0.539956
361.754486	1233.865845	10883.330078	3889.163330	0.560390
362.121124	1249.684692	11238.123047	3972.776855	0.564435
362.487732	1224.826538	11545.458984	4155.822754	0.546691
362.854279	1297.140991	11999.684570	4099.327148	0.581990
363.220795	1324.259033	11947.708984	4146.783691	0.575628
363.587311	1251.944458	11739.804688	4094.807617	0.566931
363.953735	1242.905151	11007.620117	3952.438477	0.556765
364.320160	1270.023071	10422.325195	3796.510498	0.559013
364.686554	1233.865845	9597.488281	3455.276367	0.575766
365.052887	1177.370239	9364.725586	3414.599609	0.563433
365.419189	1163.811279	8937.618164	3385.221680	0.544005
365.785492	1233.865845	8722.934570	3224.773926	0.575377
366.151703	1193.188965	8763.611328	3166.018555	0.584031
366.517944	1301.660645	8659.659180	3213.474854	0.585314
366.884094	1360.416260	8422.377930	3387.481689	0.542058
367.250214	1274.542725	8460.794922	3156.979248	0.581782
367.616333	1274.542725	8458.535156	3168.278320	0.579046
367.982361	1281.322266	8352.323242	3105.003174	0.588532
368.348419	1159.291626	8374.920898	3028.168945	0.586693
368.714386	1260.983765	8352.323242	3077.885254	0.591397
369.080383	1245.165039	8248.371094	3188.616699	0.556723
369.446289	1326.518799	8280.008789	3150.199707	0.581254
369.812195	1317.479492	8078.883789	3217.994629	0.551166
370.178009	1218.047119	7993.010254	3005.570801	0.578655
370.543854	1177.370239	8146.678711	3091.444092	0.561231
370.909607	1213.527466	8221.252930	3055.286865	0.580344
371.275360	1251.944458	7990.750488	3030.428711	0.578533
371.641052	1218.047119	8209.954102	3095.963867	0.570919
372.006744	1231.606079	8316.166016	3075.625488	0.584547
372.372375	1349.117065	8499.211914	3041.728027	0.625755
372.737976	1218.047119	8451.754883	3064.326172	0.593064
373.103546	1258.723999	8560.226563	3172.797852	0.581454
373.469055	1303.920532	8438.196289	2985.232178	0.627702
373.834595	1281.322266	8519.549805	3159.239014	0.585956
374.199982	1263.243652	8456.275391	3001.051025	0.616910
374.565460	1254.204346	8544.408203	2994.271484	0.622174
374.930817	1193.188965	8395.259766	3001.051025	0.600292
375.296204	1193.188965	8702.595703	3082.404785	0.599324
375.661499	1227.086426	8881.122070	3134.380859	0.603473
376.026825	1344.597412	8982.814453	3181.837402	0.618826
376.391998	1218.047119	9012.192383	2958.114258	0.651202
376.757263	1272.282959	9446.079102	3152.459473	0.638225
377.122406	1260.983765	9757.935547	3168.278320	0.648845
377.487549	1184.149658	9866.407227	3222.514160	0.629351
377.852631	1222.566772	10105.949219	3283.529541	0.634508
378.217743	1260.983765	10533.056641	3312.907227	0.655016
378.582764	1303.920532	10490.120117	3369.403076	0.648114
378.947754	1270.023071	10501.418945	3233.813232	0.672172
379.312714	1209.007813	10528.537109	3285.789307	0.652003
379.677673	1186.409546	9776.014648	3091.444092	0.654070
380.042542	1209.007813	9681.101563	3041.728027	0.664895
380.407379	1175.110352	9452.859375	3025.909180	0.650553
380.772186	1179.630005	9335.347656	2978.452881	0.656474
381.136993	1175.110352	9177.160156	2894.839111	0.667741
381.501740	1249.684692	9215.577148	2890.319580	0.686222
381.866486	1245.165039	9387.324219	2910.657959	0.689197
382.231110	1211.267578	9324.048828	2874.500732	0.688217
382.595764	1202.228271	9161.340820	2917.437500	0.666548
382.960327	1186.409546	8957.957031	2781.847900	0.687627
383.324951	1184.149658	9098.066406	2858.681885	0.674498
383.689453	1321.999146	9278.852539	2876.760498	0.709078
384.053986	1236.125732	9504.834961	2942.295654	0.685415
384.418396	1297.140991	9821.210938	2924.217041	0.719239
384.782867	1265.503418	9875.446289	2804.446045	0.747778
385.147217	1310.700073	9868.666992	3068.845947	0.687316
385.511597	1215.787231	9983.917969	2879.020264	0.721954
385.875885	1197.708618	9945.500977	2813.485352	0.733517
386.240204	1310.700073	9827.990234	2937.775879	0.718894
386.604401	1152.512085	10176.003906	2888.059570	0.715938
386.968628	1342.337646	10169.224609	3003.310791	0.725445
387.332764	1141.212891	10151.145508	2872.240967	0.716417
387.696930	1238.385498	10365.829102	2935.516113	0.730634
388.061005	1312.959839	10693.503906	3048.507568	0.732791
388.425140	1251.944458	10686.724609	2930.996338	0.749668
388.789124	1254.204346	10404.246094	2903.878418	0.744025
389.153168	1199.968506	10585.032227	2897.099121	0.742722
389.517090	1168.330933	10478.820313	2741.170898	0.772288
389.881042	1256.464111	10356.790039	2738.911133	0.788078
390.244873	1247.424805	10401.986328	2723.092285	0.792649
390.608734	1353.636719	10580.512695	2845.123047	0.791435
390.972534	1301.660645	10693.503906	2820.264893	0.791306
391.336304	1242.905151	10738.701172	2790.887207	0.787765
391.700043	1231.606079	10942.084961	2851.902344	0.777646
392.063751	1254.204346	11333.035156	2869.980957	0.795029
392.427399	1263.243652	11525.121094	2829.304199	0.816418
392.791077	1446.289673	12017.763672	3032.688721	0.823723
393.154663	1288.101685	11733.025391	2917.437500	0.806895
393.518219	1324.259033	11586.135742	2863.201660	0.824004
393.881744	1310.700073	11714.946289	2818.005127	0.839009
394.245209	1288.101685	11403.089844	2960.374268	0.781658
394.608704	1154.771851	11337.554688	2752.469971	0.804372
394.972107	1199.968506	11681.048828	2804.446045	0.815072
395.335480	1254.204346	11642.631836	2915.177734	0.796187
395.698792	1274.542725	12006.463867	2838.343506	0.836496
396.062103	1333.298340	11538.679688	2847.382813	0.828679
396.425385	1306.180420	11305.917969	2662.076904	0.867762
396.788635	1229.346191	10876.550781	2603.321289	0.846423
397.151825	1204.488159	10763.558594	2551.345459	0.851094
397.514984	1276.802612	10684.464844	2682.415283	0.825616
397.878113	1312.959839	10496.899414	2573.943604	0.862320
398.241180	1290.361572	10347.750977	2476.770996	0.882769
398.604248	1238.385498	10279.956055	2442.873535	0.875441
398.967285	1224.826538	10169.224609	2422.535156	0.873200
399.330231	1204.488159	10456.222656	2436.094238	0.875751
399.693176	1238.385498	10239.279297	2415.755615	0.883373
400.056091	1247.424805	10293.514648	2363.779785	0.908659
400.418976	1220.306885	10381.648438	2415.755615	0.884428
400.781830	1281.322266	10214.420898	2368.299316	0.914782
401.144592	1204.488159	10081.090820	2379.598389	0.878168
401.507355	1270.023071	10157.924805	2463.212158	0.872090
401.870087	1190.929199	10072.051758	2359.260010	0.880902
402.232758	1179.630005	10318.373047	2463.212158	0.852463
402.595428	1319.739380	10237.019531	2469.991699	0.889439
402.958038	1276.802612	10474.300781	2420.275391	0.905444
403.320618	1204.488159	10637.008789	2341.181396	0.918984
403.683167	1222.566772	10872.030273	2449.653076	0.895628
404.045654	1306.180420	11068.635742	2474.511230	0.921993
404.408142	1279.062378	10811.015625	2427.054932	0.919243
404.770569	1179.630005	11091.234375	2406.716309	0.907269
405.132996	1355.896606	11579.356445	2585.242676	0.919924
405.495331	1215.787231	11703.647461	2485.810303	0.916875
405.857666	1294.881226	11897.992188	2594.281982	0.911690
406.219940	1231.606079	11879.914063	2503.888916	0.922697
406.582214	1224.826538	11812.119141	2494.849609	0.920973
406.944427	1245.165039	11714.946289	2512.928223	0.916899
407.306549	1188.669312	11328.515625	2386.377930	0.927680
407.668732	1270.023071	11321.736328	2449.653076	0.930494
408.030792	1292.621338	11398.570313	2503.888916	0.921337
408.392914	1166.071045	11283.319336	2379.598389	0.921013
408.754883	1301.660645	11023.439453	2406.716309	0.944362
409.116943	1281.322266	11403.089844	2377.338623	0.965439
409.478882	1303.920532	11461.845703	2388.637695	0.971488
409.840820	1351.376953	11712.686523	2395.417236	0.996697
410.202667	1204.488159	11543.199219	2343.441162	0.957961
410.564575	1292.621338	11705.907227	2341.181396	0.996994
410.926331	1283.582031	11821.158203	2379.598389	0.982924
411.288147	1297.140991	11760.142578	2309.543701	1.014303
411.649872	1202.228271	12049.400391	2332.142090	0.982271
412.011566	1215.787231	11547.718750	2302.764404	0.977961
412.373199	1294.881226	11631.333008	2440.613770	0.955288
412.734894	1229.346191	11434.727539	2323.102783	0.969909
413.096436	1184.149658	11075.415039	2295.984863	0.949211
413.458008	1272.282959	11253.941406	2232.709717	1.016738
413.819519	1245.165039	11369.192383	2289.205322	0.986636
414.181030	1238.385498	11351.114258	2291.465088	0.982407
414.542450	1179.630005	11339.815430	2341.181396	0.941863
414.903870	1215.787231	11608.734375	2300.504395	0.981422
415.265198	1245.165039	11789.520508	2354.740479	0.977863
415.626587	1209.007813	11949.968750	2225.930176	1.023755
415.987854	1240.645386	11983.866211	2268.866943	1.019048
416.349152	1175.110352	12587.240234	2228.189941	1.034906
416.710327	1233.865845	12164.652344	2282.425781	1.018058
417.071533	1263.243652	12352.217773	2327.622559	1.017795
417.432678	1317.479492	12749.947266	2467.731689	0.997347
417.793823	1199.968506	13229.031250	2350.220703	1.019439
418.154877	1190.929199	13405.297852	2395.417236	1.006069
418.515930	1254.204346	13929.577148	2397.677002	1.044735
418.876923	1249.684692	14444.818359	2521.967529	1.015830
419.237915	1258.723999	14948.759766	2517.447998	1.036474
419.598816	1301.660645	15351.008789	2592.022217	1.036945
419.959717	1195.448853	15619.928711	2549.085449	1.027598
420.320526	1136.693237	16634.591797	2650.777832	1.010123
420.681396	1412.392212	17100.115234	2754.729980	1.067698
421.042145	1251.944458	17540.781250	2738.911133	1.039589
421.402924	1170.590698	18078.621094	2766.029053	1.025213
421.763580	1224.826538	18648.097656	2854.162354	1.029119
422.124298	1254.204346	19149.779297	2842.863037	1.051715
422.484894	1292.621338	19579.146484	2967.153564	1.038238
422.845520	1272.282959	19292.148438	2919.697266	1.038949
423.206055	1184.149658	19246.951172	2802.186279	1.047797
423.566589	1213.527466	18781.427734	2779.587891	1.049911
423.927063	1285.841919	19077.464844	2962.634033	1.025736
424.287506	1181.889893	18822.103516	2754.729980	1.049819
424.647949	1204.488159	18761.087891	2820.264893	1.036059
425.008301	1186.409546	19149.779297	2793.146973	1.048443
425.368652	1272.282959	19039.046875	2879.020264	1.043664
425.728943	1301.660645	18878.599609	2691.454590	1.101993
426.089203	1297.140991	19104.582031	2727.611816	1.095123
426.449432	1303.920532	18661.656250	2786.367432	1.068514
426.809601	1319.739380	18752.048828	2729.871826	1.092095
427.169739	1240.645386	18442.453125	2752.469971	1.056073
427.529846	1274.542725	18385.957031	2768.288818	1.059009
427.889954	1371.715332	17798.402344	2838.343506	1.049230
428.250000	1331.038452	17531.742188	2603.321289	1.104950
428.609985	1270.023071	16903.509766	2601.061523	1.069865
428.969940	1285.841919	16514.820313	2585.242676	1.068928
429.329865	1258.723999	16401.828125	2573.943604	1.061217
429.689789	1279.062378	16284.317383	2637.218750	1.043294
430.049622	1276.802612	15952.123047	2463.212158	1.092353
430.409454	1283.582031	15992.799805	2438.354004	1.105093
430.769226	1256.464111	15635.747070	2429.314697	1.088495
431.128937	1267.763306	15534.054688	2447.393311	1.082565
431.488678	1184.149658	15554.393555	2379.598389	1.079933
431.848328	1177.370239	15809.753906	2402.196777	1.077240
432.207947	1265.503418	15595.070313	2454.172852	1.081172
432.567566	1258.723999	15832.352539	2420.275391	1.098529
432.927124	1238.385498	15963.421875	2512.928223	1.062702
433.286621	1256.464111	16478.662109	2535.526611	1.075586
433.646118	1247.424805	16743.062500	2628.179443	1.050093
434.005554	1270.023071	16679.787109	2508.408691	1.094940
434.364960	1265.503418	16889.951172	2580.723145	1.074806
434.724335	1285.841919	16668.488281	2488.070313	1.107044
435.083649	1254.204346	16370.191406	2578.463379	1.057464
435.442932	1240.645386	16469.623047	2467.731689	1.093796
435.802216	1355.896606	16381.490234	2558.124756	1.096845
436.161407	1353.636719	16218.783203	2612.360840	1.072239
436.520630	1251.944458	16245.900391	2517.447998	1.073653
436.879761	1220.306885	16417.648438	2436.094238	1.096910
437.238831	1186.409546	16512.560547	2607.841064	1.032707
437.597931	1267.763306	16795.039063	2499.369385	1.100623
437.956940	1224.826538	16783.740234	2411.236084	1.117745
438.315948	1283.582031	16815.376953	2580.723145	1.078234
438.674896	1274.542725	16969.044922	2637.218750	1.061355
439.033844	1276.802612	16596.173828	2657.557373	1.045124
439.392700	1254.204346	17014.242188	2607.841064	1.066055
439.751556	1231.606079	17124.974609	2542.306152	1.083713
440.110352	1209.007813	17778.064453	2528.747070	1.098810
440.469116	1227.086426	17915.914063	2630.439453	1.075259
440.827850	1260.983765	18193.873047	2623.659912	1.094338
441.186554	1303.920532	18804.025391	2781.847900	1.073388
441.545197	1195.448853	18643.578125	2689.194824	1.067472
441.903809	1317.479492	19093.283203	2790.887207	1.081506
442.262390	1251.944458	19113.621094	2736.651123	1.080282
442.620941	1290.361572	18605.160156	2788.627197	1.062829
442.979462	1118.614624	18693.294922	2634.958984	1.064090
443.337921	1263.243652	18401.775391	2786.367432	1.051238
443.696350	1245.165039	18046.982422	2657.557373	1.075401
444.054718	1256.464111	18189.351563	2680.155518	1.075315
444.413086	1299.400879	18297.824219	2736.651123	1.072876
444.771423	1301.660645	18711.373047	2756.989746	1.077830
445.129669	1256.464111	17859.417969	2705.013672	1.059252
445.487915	1170.590698	17179.208984	2535.526611	1.069242
445.846130	1258.723999	17868.457031	2521.967529	1.118876
446.204285	1220.306885	17884.275391	2576.203369	1.089552
446.562408	1306.180420	18858.261719	2691.454590	1.102793
446.920532	1218.047119	19414.179688	2743.430664	1.076600
447.278595	1247.424805	19994.955078	2865.461426	1.063956
447.636566	1251.944458	20559.912109	2926.476807	1.061843
447.994568	1326.518799	21222.041016	2906.138428	1.100203
448.352509	1353.636719	20903.406250	2829.304199	1.122153
448.710419	1188.669312	21176.843750	2879.020264	1.072796
449.068237	1263.243652	20790.414063	2851.902344	1.089609
449.426056	1238.385498	20950.861328	2888.059570	1.077343
449.783844	1274.542725	20284.212891	2865.461426	1.077327
450.141602	1303.920532	20035.630859	2865.461426	1.079024
450.499329	1281.322266	19669.539063	2836.083740	1.072876
450.856964	1292.621338	18889.898438	2930.996338	1.031032
451.214630	1251.944458	19106.841797	2863.201660	1.044592
451.572235	1231.606079	18627.759766	2788.627197	1.048159
451.929779	1238.385498	18496.689453	2777.328125	1.049776
452.287323	1242.905151	18860.521484	2804.446045	1.052394
452.644806	1276.802612	18740.750000	2842.863037	1.047334
453.002258	1310.700073	18772.388672	2856.422119	1.052955
453.359650	1333.298340	18288.785156	2808.965820	1.060322
453.717010	1319.739380	18293.304688	2856.422119	1.043189
454.074341	1218.047119	17766.765625	2795.406738	1.020834
454.431641	1335.558105	17793.882813	2786.367432	1.054775
454.788910	1247.424805	17192.767578	2727.611816	1.032317
455.146118	1247.424805	17411.972656	2888.059570	0.993552
455.503296	1168.330933	17260.562500	2756.989746	1.005586
455.860443	1258.723999	17538.521484	2729.871826	1.043993
456.217560	1270.023071	16776.960938	2818.005127	1.000760
456.574615	1367.195679	16892.210938	2743.430664	1.052339
456.931641	1362.676025	17292.201172	2926.476807	1.008021
457.288635	1263.243652	17158.871094	2836.083740	1.004593
457.645599	1276.802612	17023.281250	2766.029053	1.024223
458.002502	1238.385498	17118.193359	2845.123047	0.994900
458.359375	1224.826538	17497.845703	2743.430664	1.030024
458.716217	1202.228271	18058.283203	2971.673340	0.978919
459.073029	1213.527466	18862.781250	3134.380859	0.963232
459.429779	1281.322266	19983.656250	3233.813232	0.981307
459.786499	1240.645386	20932.783203	3292.568848	0.982132
460.143219	1220.306885	22017.500000	3480.134521	0.963929
460.499847	1215.787231	22645.732422	3457.536133	0.980434
460.856476	1283.582031	23025.382813	3518.551514	0.988024
461.213043	1231.606079	23294.302734	3534.370361	0.981409
461.569550	1245.165039	22620.875000	3541.149902	0.968952
461.926056	1410.132446	22634.433594	3590.865967	0.988231
462.282501	1263.243652	21811.855469	3559.228516	0.951813
462.638916	1279.062378	20794.933594	3344.544922	0.975366
462.995331	1213.527466	20087.607422	3312.907227	0.953775
463.351654	1233.865845	19897.781250	3283.529541	0.959320
463.707947	1258.723999	19294.408203	3324.206299	0.941111
464.064209	1344.597412	19190.457031	3389.741455	0.940814
464.420441	1240.645386	18905.718750	3340.025146	0.925024
464.776642	1258.723999	18519.287109	3292.568848	0.928737
465.132782	1267.763306	18650.357422	3373.922607	0.916623
465.488892	1240.645386	18356.580078	3342.285156	0.910842
465.844971	1288.101685	18785.947266	3407.820068	0.916706
466.201019	1283.582031	18743.009766	3448.496826	0.906589
466.557007	1209.007813	18935.095703	3525.331055	0.883814
466.912964	1206.747925	19072.945313	3615.724121	0.870200
467.268890	1270.023071	19030.007813	3590.865967	0.883797
467.624756	1195.448853	19554.289063	3556.968750	0.890654
467.980591	1229.346191	20026.591797	3733.235107	0.875479
468.336426	1294.881226	19881.962891	3769.392578	0.875722
468.692169	1209.007813	19353.164063	3803.289795	0.844720
469.047913	1242.905151	19163.337891	3868.824951	0.834067
469.403625	1179.630005	18851.482422	3814.589111	0.826508
469.759247	1197.708618	18623.240234	3801.030029	0.825658
470.114838	1231.606079	18442.453125	3834.927490	0.820274
470.470459	1181.889893	18535.105469	3740.014648	0.831458
470.825958	1227.086426	17999.527344	3828.147949	0.809446
471.181488	1229.346191	18248.107422	3862.045410	0.810527
471.536926	1263.243652	18205.171875	3807.809570	0.823349
471.892365	1215.787231	18239.068359	3907.241943	0.801056
472.247742	1321.999146	18311.382813	4045.091309	0.795115
472.603058	1274.542725	18539.625000	3954.698242	0.809009
472.958374	1306.180420	18901.197266	4332.089355	0.764534
473.313629	1209.007813	19219.833984	4372.766602	0.755330
473.668884	1251.944458	18926.056641	4318.530762	0.760682
474.024048	1245.165039	19194.976563	4356.947754	0.761051
474.379211	1206.747925	19346.384766	4368.246582	0.758736
474.734314	1285.841919	19466.154297	4488.017578	0.754156
475.089417	1190.929199	19129.441406	4524.174805	0.730919
475.444458	1157.031738	19179.156250	4637.166504	0.714210
475.799438	1163.811279	19276.330078	4675.583496	0.712453
476.154388	1213.527466	19558.808594	4675.583496	0.724190
476.509308	1260.983765	19859.365234	4967.101074	0.700556
476.864197	1285.841919	20055.970703	4872.188477	0.718815
477.219025	1186.409546	20521.494141	5147.887207	0.688489
477.573822	1147.992432	20898.886719	5281.217285	0.679298
477.928619	1288.101685	21490.960938	5439.405273	0.687228
478.283325	1274.542725	21667.226563	5552.396484	0.678248
478.638000	1220.306885	21947.445313	5599.853027	0.675110
478.992676	1229.346191	22356.474609	5782.898926	0.666490
479.347260	1405.612793	22774.542969	6203.226563	0.648757
479.701843	1260.983765	22652.511719	6130.912109	0.642719
480.056366	1222.566772	23059.281250	6160.290039	0.645661
480.410858	1247.424805	23734.968750	6381.753418	0.641458
480.765320	1256.464111	24058.125000	6589.657227	0.630979
481.119751	1206.747925	24989.173828	6811.120605	0.627729
481.474091	1204.488159	25502.154297	7125.236328	0.613188
481.828430	1263.243652	26697.603516	7412.234375	0.616617
482.182709	1297.140991	28839.919922	8135.379395	0.605063
482.536987	1184.149658	30742.695313	8325.205078	0.616921
482.891174	1333.298340	33703.070313	9131.963867	0.618119
483.245361	1222.566772	38179.789063	10298.034180	0.609830
483.599518	1245.165039	44331.039063	11961.267578	0.604298
483.953644	1254.204346	49528.640625	13658.398438	0.590149
484.307678	1193.188965	52778.273438	14978.137695	0.573119
484.661713	1263.243652	54735.285156	15479.819336	0.575332
485.015686	1222.566772	55813.222656	16442.505859	0.554705
485.369659	1193.188965	55128.496094	16288.837891	0.553021
485.723572	1215.787231	53270.917969	15610.888672	0.558249
486.077423	1195.448853	50629.179688	14749.894531	0.561942
486.431274	1193.188965	48007.777344	14067.426758	0.560660
486.785034	1249.684692	46697.078125	13732.972656	0.561180
487.138794	1190.929199	46294.828125	13717.153320	0.556394
487.492523	1258.723999	46828.148438	14022.230469	0.552704
487.846191	1206.747925	47614.566406	14288.889648	0.549912
488.199829	1240.645386	48649.570313	14266.291992	0.561061
488.553436	1254.204346	48502.679688	14765.713867	0.543684
488.906982	1270.023071	47734.339844	15066.270508	0.527359
489.260529	1247.424805	45953.593750	14503.573242	0.527950
489.613983	1240.645386	45013.507813	14343.125977	0.523851
489.967438	1297.140991	42387.585938	13617.721680	0.523110
490.320831	1251.944458	40742.433594	13281.006836	0.516261
490.674194	1263.243652	39983.128906	12862.938477	0.523487
491.027527	1170.590698	39533.425781	13041.464844	0.509428
491.380798	1202.228271	41122.082031	13337.502930	0.517139
491.734070	1211.267578	42631.648438	13983.813477	0.510937
492.087250	1197.708618	43058.753906	14135.221680	0.509959
492.440430	1283.582031	43942.347656	14354.424805	0.513705
492.793549	1258.723999	42697.183594	14243.693359	0.503963
493.146637	1206.747925	41985.335938	14029.009766	0.502468
493.499695	1249.684692	39942.453125	13434.674805	0.501805
493.852692	1258.723999	36905.246094	12575.940430	0.498278
494.205658	1285.841919	34295.144531	12004.204102	0.488508
494.558594	1360.416260	32787.839844	11430.208008	0.494288
494.911499	1279.062378	30541.570313	11159.028320	0.471556
495.264374	1274.542725	29323.523438	10560.174805	0.480106
495.617188	1331.038452	28399.253906	10359.049805	0.476867
495.969940	1260.983765	27827.517578	10169.224609	0.474543
496.322693	1238.385498	27757.462891	9968.099609	0.482558
496.675385	1276.802612	27915.650391	10187.302734	0.475613
497.028015	1301.660645	28320.160156	10218.940430	0.481429
497.380676	1218.047119	27845.595703	10293.514648	0.467462
497.733246	1215.787231	28340.498047	10300.293945	0.475064
498.085785	1911.814209	29334.822266	10935.305664	0.482740
498.438263	1290.361572	28195.869141	10266.396484	0.476757
498.790710	1240.645386	27920.169922	10221.200195	0.472875
499.143158	1297.140991	27165.388672	10042.673828	0.470981
499.495544	1254.204346	26971.042969	10137.586914	0.461639
499.847870	1188.669312	26715.681641	9929.682617	0.465438
500.200165	1150.252197	26207.220703	9832.509766	0.460296
500.552429	1288.101685	25915.703125	9681.101563	0.467505
500.904663	1229.346191	25099.906250	9629.125000	0.453595
501.256866	1294.881226	24896.521484	9362.465820	0.466199
501.609009	1254.204346	24530.429688	9330.828125	0.459683
501.961090	1218.047119	23949.652344	8982.814453	0.466502
502.313171	1249.684692	24112.361328	9125.183594	0.462849
502.665253	1166.071045	24015.187500	9028.011719	0.463340
503.017181	1265.503418	24055.865234	8939.877930	0.472708
503.369110	1175.110352	23771.126953	8652.879883	0.480260
503.721069	1290.361572	23850.220703	9059.648438	0.462955
504.072937	1258.723999	23945.132813	9050.609375	0.464123
504.424774	1172.850586	23976.771484	8899.201172	0.470035
504.776520	1204.488159	23895.417969	8878.862305	0.470809
505.128265	1229.346191	24082.982422	8792.989258	0.480224
505.480042	1303.920532	24220.832031	8912.759766	0.478838
505.831665	1233.865845	24304.445313	8885.642578	0.479296
506.183289	1159.291626	23906.716797	8679.998047	0.480674
506.534882	1168.330933	23832.142578	8951.176758	0.464195
506.886505	1236.125732	23827.623047	8781.690430	0.476253
507.237946	1179.630005	23716.890625	8736.493164	0.474560
507.589417	1195.448853	23949.652344	8768.130859	0.477812
507.940857	1308.440186	23868.298828	8639.321289	0.488180
508.292297	1258.723999	24008.408203	8716.155273	0.484386
508.643616	1197.708618	24281.847656	8713.895508	0.487316
508.994904	1204.488159	24650.199219	8885.642578	0.484637
509.346191	1331.038452	25045.669922	8770.390625	0.503481
509.697479	1242.905151	24989.173828	8813.328125	0.496475
510.048645	1181.889893	25409.501953	8761.351563	0.504672
510.399780	1337.817993	25615.146484	9032.531250	0.499008
510.750916	1263.243652	25429.839844	9125.183594	0.487686
511.102051	1251.944458	25635.484375	8910.500000	0.502950
511.453033	1279.062378	25793.671875	8951.176758	0.504510
511.804016	1215.787231	26150.724609	8996.374023	0.505796
512.154968	1184.149658	26028.695313	8987.333984	0.502959
512.505920	1263.243652	26650.146484	8811.067383	0.526788
512.856750	1251.944458	26376.707031	9030.271484	0.509216
513.207581	1276.802612	26218.519531	9061.909180	0.505662
513.558411	1240.645386	26223.039063	8964.736328	0.509787
513.909180	1179.630005	26281.794922	8750.052734	0.520591
514.259888	1288.101685	26001.576172	8679.998047	0.524178
514.610535	1238.385498	25630.964844	8955.697266	0.499792
514.961182	1132.173584	25664.861328	8772.650391	0.506625
515.311829	1166.071045	25710.058594	8657.399414	0.515386
515.662354	1292.621338	25461.478516	8752.312500	0.510535
516.012878	1301.660645	25601.587891	8510.510742	0.527739
516.363281	1218.047119	25832.089844	8515.030273	0.528040
516.713745	1125.394165	25771.074219	8648.360352	0.515352
517.064209	1213.527466	26629.808594	8856.264648	0.521863
517.414490	1157.031738	27183.466797	8924.059570	0.525160
517.764832	1204.488159	27554.078125	9016.711914	0.527999
518.115173	1193.188965	28207.167969	9143.262695	0.531217
518.465393	1256.464111	29664.757813	9502.575195	0.537196
518.815552	1220.306885	30297.509766	9728.557617	0.533712
519.165710	1306.180420	31239.857422	9696.919922	0.552360
519.515869	1175.110352	30378.863281	9769.234375	0.531237
519.865967	1220.306885	30715.576172	9588.448242	0.547123
520.216003	1220.306885	30528.011719	9455.119141	0.551328
520.565918	1260.983765	29800.347656	9595.228516	0.534578
520.915955	1240.645386	29366.458984	9525.173828	0.530837
521.265869	1188.669312	28909.974609	9256.253906	0.536070
521.615723	1238.385498	28313.380859	9152.301758	0.534177
521.965576	1333.298340	27920.169922	9161.340820	0.531014
522.315369	1172.850586	27816.218750	8725.194336	0.547507
522.665161	1175.110352	27685.148438	8770.390625	0.542867
523.014832	1260.983765	27719.044922	8713.895508	0.550232
523.364502	1263.243652	27382.332031	8851.745117	0.536802
523.714172	1267.763306	27714.525391	8736.493164	0.549126
524.063782	1294.881226	28706.589844	9028.011719	0.549581
524.413330	1186.409546	28792.462891	9057.388672	0.544976
524.762817	1224.826538	29700.914063	9247.214844	0.550177
525.112366	1236.125732	30912.181641	9479.976563	0.556276
525.461792	1197.708618	32051.134766	9739.857422	0.557736
525.811157	1321.999146	33786.683594	10216.680664	0.562281
526.160522	1233.865845	34442.031250	10548.875000	0.552062
526.509827	1272.282959	35700.757813	10933.045898	0.551906
526.859131	1218.047119	36794.511719	10892.369141	0.565542
527.208313	1299.400879	38776.382813	11448.287109	0.567346
527.557495	1281.322266	40148.097656	11873.134766	0.564608
527.906738	1220.306885	42600.011719	12636.956055	0.559249
528.255859	1233.865845	46606.683594	13459.533203	0.569523
528.604919	1177.370239	50100.378906	14530.691406	0.563924
528.953918	1303.920532	52771.496094	15165.703125	0.569715
529.302917	1256.464111	54046.039063	16126.129883	0.550247
529.651917	1364.935913	54563.539063	16340.813477	0.550508
530.000793	1258.723999	53792.937500	16017.658203	0.551387
530.349609	1342.337646	52102.585938	15195.081055	0.563988
530.698547	1299.400879	49445.027344	14571.368164	0.559622
531.047302	1283.582031	46159.238281	13563.485352	0.562816
531.396057	1215.787231	43535.578125	12765.766602	0.563962
531.744751	1263.243652	41490.433594	12139.793945	0.568029
532.093445	1161.551392	39978.609375	11644.891602	0.568523
532.442139	1285.841919	40105.160156	11574.836914	0.576675
532.790710	1190.929199	39583.140625	11595.175781	0.567033
533.139160	1154.771851	41348.066406	11647.151367	0.583280
533.487732	1218.047119	41705.117188	12031.322266	0.573359
533.836243	1172.850586	42717.519531	12266.344727	0.573447
534.184631	1120.874512	42618.089844	12320.580078	0.568812
534.533020	1199.968506	42041.832031	12038.101563	0.576151
534.881348	1123.134277	40374.082031	11818.898438	0.564638
535.229736	1175.110352	39433.992188	11672.009766	0.561671
535.577942	1249.684692	37495.058594	11235.863281	0.559853
535.926086	1342.337646	36726.718750	11061.856445	0.561167
536.274353	1193.188965	36231.816406	10548.875000	0.573471
536.622498	1292.621338	36021.652344	10521.757813	0.575532
536.970642	1324.259033	36127.863281	10505.938477	0.578702
537.318665	1163.811279	35619.402344	10288.995117	0.577018
537.666687	1254.204346	35465.734375	10081.090820	0.588365
538.014709	1260.983765	34503.046875	10067.532227	0.576882
538.362610	1283.582031	33736.964844	9796.352539	0.581189
538.710510	1245.165039	32803.656250	9694.660156	0.572285
539.058411	1166.071045	31926.843750	9477.716797	0.568310
539.406250	1251.944458	31531.375000	9366.985352	0.571857
539.753967	1317.479492	31567.531250	9493.536133	0.568182
540.101746	1215.787231	32080.513672	9479.976563	0.572262
540.449463	1215.787231	33368.613281	9981.658203	0.564424
540.797119	1290.361572	35567.425781	10594.072266	0.566347
541.144714	1204.488159	37716.523438	10951.125000	0.573581
541.492249	1240.645386	39822.683594	11556.758789	0.572869
541.839844	1272.282959	42098.328125	12087.818359	0.576889
542.187378	1263.243652	42857.628906	12275.383789	0.577163
542.534790	1229.346191	42993.218750	12415.493164	0.572120
542.882202	1213.527466	42807.914063	12508.145508	0.566163
543.229553	1222.566772	41576.308594	11827.937500	0.580358
543.576965	1161.551392	39485.968750	11787.260742	0.557118
543.924194	1245.165039	37709.742188	11251.681641	0.561588
544.271423	1220.306885	36087.187500	10700.284180	0.565606
544.618652	1177.370239	34595.699219	10463.001953	0.556173
544.965881	1349.117065	33185.570313	10268.656250	0.552582
545.312988	1172.850586	32062.433594	9843.809570	0.551745
545.660034	1344.597412	30968.677734	9809.912109	0.544002
546.007141	1297.140991	30175.478516	9443.819336	0.549592
546.354126	1166.071045	29773.228516	9360.206055	0.542972
546.701111	1181.889893	29667.017578	9466.417969	0.536350
547.048035	1215.787231	29126.917969	9443.819336	0.530481
547.394836	1227.086426	29208.271484	9177.160156	0.546495
547.741699	1179.630005	28383.435547	9337.607422	0.523047
548.088562	1150.252197	28385.695313	9172.640625	0.530831
548.435303	1215.787231	27689.667969	9188.458984	0.521214
548.781921	1188.669312	26675.005859	8930.838867	0.517445
549.128662	1220.306885	25696.500000	8790.729492	0.509624
549.475342	1265.503418	24889.742188	8533.109375	0.511966
549.821899	1224.826538	24318.005859	8415.597656	0.506708
550.168457	1254.204346	23190.351563	8379.440430	0.488361
550.515015	1344.597412	22871.714844	8121.820313	0.501934
550.861511	1274.542725	22406.191406	8264.189453	0.480478
551.207886	1222.566772	22069.476563	7947.813477	0.491334
551.554260	1312.959839	21911.289063	8182.835938	0.476883
551.900635	1315.219727	21626.550781	8302.606445	0.463424
552.247009	1202.228271	22060.437500	8277.749023	0.469519
552.593262	1331.038452	21929.367188	8311.645508	0.469939
552.939392	1238.385498	22275.121094	8449.495117	0.464976
553.285645	1175.110352	21857.052734	8618.982422	0.443792
553.631775	1213.527466	22010.720703	8634.801758	0.447526
553.977905	1199.968506	22092.074219	8612.203125	0.450033
554.323975	1161.551392	21836.714844	8795.249023	0.432714
554.669983	1209.007813	21640.109375	8770.390625	0.431691
555.015991	1204.488159	21244.638672	8761.351563	0.423559
555.361877	1222.566772	20984.759766	8899.201172	0.410664
555.707825	1166.071045	20968.939453	8637.061523	0.423350
556.053711	1181.889893	20462.738281	8698.076172	0.409129
556.399536	1127.653931	20288.732422	8573.786133	0.410489
556.745239	1290.361572	19839.027344	8786.209961	0.393492
557.091003	1249.684692	19696.658203	8788.469727	0.388624
557.436707	1166.071045	19759.933594	8883.382813	0.381904
557.782410	1143.472778	19633.382813	9007.672852	0.371280
558.127991	1206.747925	19335.085938	9023.491211	0.365332
558.473511	1233.865845	19387.060547	9154.561523	0.360190
558.819092	1190.929199	19185.935547	9344.386719	0.343810
559.164612	1157.031738	19039.046875	9177.160156	0.348235
559.510010	1215.787231	18987.072266	9258.513672	0.344316
559.855408	1240.645386	19000.630859	9425.741211	0.336419
560.200806	1249.684692	18853.742188	9550.031250	0.326517
560.546143	1193.188965	18837.923828	9821.210938	0.310704
560.891357	1258.723999	19269.550781	9859.627930	0.320990
561.236633	1331.038452	19226.613281	10325.152344	0.298787
561.581848	1276.802612	19233.392578	10216.680664	0.302892
561.927002	1249.684692	19210.794922	10447.182617	0.290663
562.272095	1163.811279	19389.320313	10535.316406	0.288870
562.617126	1290.361572	19100.062500	10483.339844	0.287200
562.962219	1301.660645	19280.849609	11107.052734	0.263305
563.307251	1260.983765	19102.322266	10851.692383	0.269577
563.652161	1292.621338	19027.748047	11177.107422	0.253880
563.997009	1229.346191	19267.291016	11174.847656	0.258560
564.341919	1215.787231	18957.693359	11240.382813	0.247933
564.686768	1147.992432	19319.265625	11565.797852	0.241609
565.031555	1215.787231	18919.277344	11699.127930	0.227559
565.376282	1383.014526	19685.357422	12081.038086	0.233203
565.721008	1326.518799	19604.003906	12227.926758	0.224434
566.065674	1147.992432	20092.126953	12763.506836	0.212436
566.410278	1190.929199	20489.857422	12686.671875	0.224996
566.754822	1204.488159	21113.570313	13271.967773	0.217435
567.099365	1233.865845	20568.951172	13147.676758	0.210295
567.443909	1172.850586	20874.027344	13545.406250	0.202033
567.788330	1290.361572	20785.894531	13692.295898	0.196446
568.132751	1188.669312	20738.437500	14171.378906	0.177776
568.477112	1231.606079	20281.953125	13931.836914	0.176091
568.821533	1276.802612	20076.308594	13974.774414	0.170412
569.165771	1249.684692	19886.482422	14340.866211	0.153392
569.510010	1254.204346	20175.740234	14467.416016	0.155948
569.854248	1283.582031	19954.277344	14395.101563	0.153507
570.198364	1197.708618	19590.445313	14860.625977	0.129103
570.542542	1218.047119	19877.443359	15086.609375	0.128866
570.886536	1242.905151	20200.599609	15242.537109	0.131669
571.230591	1161.551392	20128.285156	15766.817383	0.113483
571.574646	1177.370239	20297.771484	16065.114258	0.108668
571.918518	1272.282959	20677.421875	16273.018555	0.111804
572.262451	1125.394165	20695.501953	16715.945313	0.098732
572.606323	1184.149658	21179.103516	16883.171875	0.105048
572.950195	1206.747925	21090.970703	17378.074219	0.089763
573.293945	1152.512085	21355.371094	17443.609375	0.093462
573.637695	1254.204346	20684.203125	17472.986328	0.078455
573.981384	1233.865845	20727.138672	17882.015625	0.068519
574.325134	1260.983765	20659.343750	17859.417969	0.067698
574.668701	1206.747925	20670.642578	17750.945313	0.070584
575.012268	1170.590698	20415.283203	18340.761719	0.049536
575.355774	1247.424805	20406.244141	18480.871094	0.045997
575.699341	1279.062378	19981.396484	18715.892578	0.030428
576.042725	1310.700073	20361.046875	18865.041016	0.035518
576.386169	1218.047119	20026.591797	18980.292969	0.024857
576.729553	1290.361572	19637.902344	19127.181641	0.012260
577.072876	1419.171753	19253.730469	19292.148438	-0.000935
577.416138	1270.023071	18912.498047	19298.927734	-0.009410
577.759399	1308.440186	18492.169922	19267.291016	-0.019161
578.102600	1172.850586	18207.431641	19378.021484	-0.028863
578.445801	1197.708618	17906.873047	19217.574219	-0.032797
578.788940	1251.944458	17662.812500	19640.162109	-0.049408
579.131897	1260.983765	17454.908203	19674.058594	-0.055774
579.474976	1312.959839	17201.808594	20049.191406	-0.071590
579.817993	1215.787231	16894.470703	19741.853516	-0.072474
580.160950	1233.865845	16697.867188	19791.570313	-0.079202
580.503845	1231.606079	16248.160156	20119.246094	-0.099607
580.846680	1154.771851	16047.036133	20178.000000	-0.106323
581.189514	1265.503418	15947.603516	20288.732422	-0.112496
581.532349	1159.291626	15895.626953	20297.771484	-0.113518
581.875061	1152.512085	15854.950195	20867.248047	-0.127402
582.217773	1317.479492	15791.675781	20652.564453	-0.125752
582.560425	1317.479492	15741.958984	21233.339844	-0.140099
582.903076	1263.243652	15735.179688	21093.230469	-0.136796
583.245667	1152.512085	15506.937500	21269.498047	-0.146577
583.588135	1245.165039	15459.480469	21380.228516	-0.151227
583.930664	1270.023071	15366.828125	21712.423828	-0.161411
584.273071	1292.621338	15565.692383	21707.904297	-0.155438
584.615479	1166.071045	15267.395508	21886.429688	-0.167137
584.957825	1163.811279	15127.286133	22049.138672	-0.174848
585.300232	1233.865845	15253.835938	22374.552734	-0.178372
585.642517	1224.826538	15086.609375	21963.263672	-0.174957
585.984680	1242.905151	15084.349609	22419.750000	-0.184680
586.326843	1326.518799	15219.939453	22489.804688	-0.182774
586.669067	1233.865845	15036.892578	22575.677734	-0.189257
587.011230	1288.101685	15344.229492	23047.982422	-0.189791
587.353271	1150.252197	14978.137695	22864.935547	-0.195998
587.695251	1168.330933	14880.964844	23075.099609	-0.203457
588.037231	1224.826538	15125.026367	23330.460938	-0.201482
588.379211	1301.660645	15228.978516	23506.726563	-0.202585
588.721069	1281.322266	15161.183594	23529.324219	-0.204906
589.062927	1227.086426	15113.727539	23484.128906	-0.204870
589.404785	1247.424805	15402.985352	23947.392578	-0.205098
589.746582	1163.811279	15154.404297	24139.478516	-0.215432
590.088257	1227.086426	15488.858398	24250.210938	-0.207991
590.429932	1265.503418	15380.386719	24229.871094	-0.211377
590.771606	1181.889893	15177.001953	24128.179688	-0.214736
591.113220	1249.684692	15617.668945	24562.066406	-0.210191
591.454773	1387.534180	15373.607422	24842.285156	-0.224535
591.796265	1220.306885	15077.570313	24426.476563	-0.223926
592.137817	1258.723999	14869.666016	24914.599609	-0.240051
592.479248	1236.125732	15014.294922	24363.201172	-0.224929
592.820618	1206.747925	15145.364258	24311.224609	-0.219476
593.161926	1251.944458	14758.934570	24388.060547	-0.233732
593.503296	1301.660645	14867.406250	24241.169922	-0.228140
593.844604	1276.802612	15082.089844	24681.837891	-0.229264
594.185791	1251.944458	15122.766602	24471.673828	-0.223755
594.526917	1281.322266	15012.035156	24611.783203	-0.230230
594.868103	1324.259033	15482.079102	25169.960938	-0.226414
595.209229	1299.400879	15357.788086	25070.527344	-0.228114
595.550232	1209.007813	15719.361328	25289.730469	-0.219992
595.891235	1213.527466	15958.902344	25314.589844	-0.213380
596.232178	1294.881226	15986.020508	25581.248047	-0.218307
596.573181	1274.542725	16239.121094	25868.246094	-0.215759
596.914063	1270.023071	16770.181641	25870.505859	-0.200607
597.254883	1166.071045	16874.132813	26268.236328	-0.203589
597.595703	1328.778687	17163.390625	26369.927734	-0.199047
597.936462	1213.527466	17131.753906	26478.400391	-0.200622
598.277161	1145.732544	16989.384766	25947.339844	-0.194625
598.617798	1267.763306	16164.546875	25685.201172	-0.214608
598.958435	1206.747925	16223.302734	25646.783203	-0.211532
599.299072	1242.905151	15685.463867	25325.888672	-0.222066
599.639587	1267.763306	15280.954102	24681.837891	-0.222940
599.980103	1251.944458	15136.325195	24480.712891	-0.223500
600.320557	1317.479492	14736.335938	24123.660156	-0.230337
600.661072	1238.385498	14232.394531	23942.873047	-0.242369
601.001404	1263.243652	14345.385742	23784.685547	-0.235917
601.341675	1274.542725	14044.829102	24200.494141	-0.254127
601.681946	1312.959839	14022.230469	23551.923828	-0.242994
602.022278	1229.346191	14040.308594	23454.750000	-0.239268
602.362427	1209.007813	14096.804688	23723.669922	-0.242287
602.702576	1179.630005	14381.542969	23692.033203	-0.231785
603.042725	1233.865845	14666.281250	24071.683594	-0.230501
603.382813	1263.243652	15005.254883	23816.322266	-0.215155
603.722839	1218.047119	15610.888672	24485.232422	-0.208597
604.062805	1224.826538	15936.304688	24623.082031	-0.201527
604.402771	1450.809326	16395.048828	25120.244141	-0.199714
604.742737	1265.503418	16704.646484	25075.046875	-0.188128
605.082581	1206.747925	16650.410156	24984.654297	-0.187423
605.422363	1229.346191	16781.480469	25129.283203	-0.186607
605.762146	1179.630005	17030.060547	25169.960938	-0.179995
606.101929	1247.424805	16560.017578	25086.345703	-0.192238
606.441589	1274.542725	16480.921875	24582.404297	-0.185477
606.781189	1256.464111	16092.232422	24327.044922	-0.191748
607.120850	1231.606079	15699.022461	23777.906250	-0.192684
607.460388	1233.865845	15534.054688	23420.853516	-0.190757
607.799927	1247.424805	15043.672852	23154.193359	-0.200817
608.139404	1294.881226	14664.021484	22718.046875	-0.204780
608.478821	1247.424805	14492.274414	22431.048828	-0.203953
608.818298	1190.929199	14697.918945	22860.416016	-0.205290
609.157593	1188.669312	14892.263672	22937.250000	-0.200596
609.496887	1321.999146	15134.065430	22977.927734	-0.195318
609.836182	1265.503418	15120.506836	23054.761719	-0.196636
610.175415	1179.630005	15084.349609	22934.990234	-0.194404
610.514526	1337.817993	15445.921875	22980.187500	-0.185836
610.853699	1315.219727	15280.954102	22776.802734	-0.186598
611.192688	1152.512085	15082.089844	22645.732422	-0.188364
611.531799	1202.228271	14792.832031	22130.492188	-0.187494
611.870850	1272.282959	14745.375000	21904.509766	-0.185079
612.209778	1276.802612	14227.875000	21531.636719	-0.194223
612.548645	1186.409546	14126.182617	21506.779297	-0.196005
612.887573	1231.606079	13608.681641	21070.632813	-0.204902
613.226440	1258.723999	13326.203125	20792.673828	-0.209173
613.565186	1145.732544	13156.716797	20437.880859	-0.205802
613.903931	1190.929199	13088.921875	20501.156250	-0.210314
614.242676	1141.212891	12691.191406	20467.257813	-0.223562
614.581360	1249.684692	12677.632813	20225.457031	-0.220231
614.919983	1274.542725	12494.586914	19669.539063	-0.214705
615.258484	1303.920532	12691.191406	19576.886719	-0.205389
615.597046	1238.385498	12485.547852	19312.486328	-0.206014
615.935547	1143.472778	12401.933594	19554.289063	-0.213594
616.273987	1193.188965	12449.390625	19283.109375	-0.206045
616.612366	1342.337646	12505.885742	19086.503906	-0.201253
616.950806	1290.361572	12334.138672	19115.880859	-0.207925
617.289124	1274.542725	12426.791992	19063.906250	-0.202798
617.627380	1199.968506	12358.997070	18932.835938	-0.201153
617.965515	1195.448853	12650.514648	19165.597656	-0.195554
618.303772	1306.180420	12490.067383	18950.914063	-0.198022
618.641968	1211.267578	12508.145508	18648.097656	-0.188509
618.980042	1213.527466	12325.099609	18706.853516	-0.197097
619.318054	1190.929199	12598.539063	18962.212891	-0.192524
619.656128	1211.267578	12218.887695	18648.097656	-0.199774
619.994080	1197.708618	12361.256836	18535.105469	-0.191182
620.331970	1301.660645	12207.588867	18580.302734	-0.199847
620.669861	1308.440186	12103.636719	18302.343750	-0.197063
621.007751	1204.488159	12044.880859	17884.275391	-0.187146
621.345581	1184.149658	12182.730469	18223.250000	-0.190110
621.683289	1224.826538	11857.315430	17985.968750	-0.197669
622.020996	1276.802612	11968.046875	17940.771484	-0.192750
622.358704	1222.566772	11852.795898	17780.324219	-0.192459
622.696350	1224.826538	12076.518555	17753.205078	-0.182733
623.033875	1281.322266	12083.297852	17694.451172	-0.181688
623.371460	1193.188965	11522.861328	17378.074219	-0.195023
623.708984	1260.983765	11886.693359	17375.814453	-0.180868
624.046448	1331.038452	11891.212891	17332.876953	-0.180499
624.383789	1254.204346	11839.237305	17052.658203	-0.173922
624.721191	1292.621338	11997.424805	17402.931641	-0.177525
625.058533	1251.944458	11823.417969	17018.761719	-0.173609
625.395813	1267.763306	12078.778320	17154.351563	-0.167164
625.733032	1224.826538	12081.038086	17005.203125	-0.162439
626.070190	1260.983765	12372.556641	17188.248047	-0.156366
626.407410	1340.077759	12397.414063	17409.712891	-0.162355
626.744507	1297.140991	12508.145508	17405.191406	-0.157398
627.081543	1276.802612	12496.846680	17210.847656	-0.152332
627.418518	1270.023071	12923.954102	17606.316406	-0.146681
627.755554	1249.684692	12883.277344	17242.484375	-0.138211
628.092529	1299.400879	13055.024414	17590.498047	-0.141705
628.429382	1290.361572	12691.191406	17373.554688	-0.149436
628.766174	1373.975220	12797.403320	17041.359375	-0.137200
629.103027	1249.684692	12982.709961	16957.746094	-0.126713
629.439819	1233.865845	12318.320313	16627.812500	-0.142636
629.776489	1258.723999	12137.534180	16205.223633	-0.137958
630.113159	1193.188965	12123.975586	16300.136719	-0.140525
630.449829	1270.023071	11841.497070	16128.389648	-0.147836
630.786377	1240.645386	11746.583984	15760.038086	-0.140514
631.122925	1344.597412	11977.085938	16010.878906	-0.139685
631.459412	1364.935913	11873.134766	15687.723633	-0.134499
631.795898	1242.905151	11450.546875	15421.063477	-0.142694
632.132324	1220.306885	11174.847656	15346.489258	-0.152004
632.468689	1281.322266	11235.863281	14957.798828	-0.137953
632.804993	1197.708618	11086.713867	14930.680664	-0.142612
633.141296	1213.527466	11070.895508	14890.003906	-0.142213
633.477539	1276.802612	11079.934570	14593.966797	-0.133047
633.813721	1186.409546	10962.423828	14621.084961	-0.138065
634.149841	1215.787231	11188.406250	14720.516602	-0.131677
634.485962	1245.165039	10939.825195	14664.021484	-0.141183
634.822083	1231.606079	11005.360352	14589.447266	-0.135675
635.158020	1247.424805	10991.801758	14349.905273	-0.128599
635.494019	1186.409546	11122.871094	14410.920898	-0.124148
635.829956	1195.448853	10639.268555	14300.189453	-0.142281
636.165894	1211.267578	10519.497070	14022.230469	-0.138715
636.501709	1218.047119	10770.338867	13999.631836	-0.126477
636.837463	1220.306885	10309.333984	13712.633789	-0.138126
637.173279	1290.361572	10508.198242	13579.303711	-0.124885
637.509033	1272.282959	10171.484375	13586.083984	-0.141041
637.844666	1150.252197	10056.232422	13086.662109	-0.127192
638.180237	1265.503418	10112.728516	13407.557617	-0.137485
638.515869	1154.771851	9952.281250	13014.347656	-0.129709
638.851440	1242.905151	9974.878906	12661.814453	-0.116512
639.186890	1170.590698	9780.534180	12519.445313	-0.119952
639.522339	1159.291626	9778.274414	12711.530273	-0.127210
639.857727	1233.865845	9809.912109	12560.122070	-0.120799
640.193176	1376.234985	9588.448242	12578.200195	-0.134834
640.528442	1193.188965	9556.810547	12144.313477	-0.117064
640.863708	1254.204346	9489.016602	12189.509766	-0.123177
641.198914	1276.802612	9448.338867	12026.802734	-0.119105
641.534180	1211.267578	9357.946289	11954.488281	-0.120154
641.869263	1218.047119	9437.040039	12029.062500	-0.119048
642.204346	1238.385498	9272.072266	11753.363281	-0.116893
642.539368	1215.787231	9312.750000	11649.411133	-0.110113
642.874390	1326.518799	9068.688477	11800.819336	-0.131262
643.209412	1168.330933	8989.594727	11683.308594	-0.128531
643.544312	1310.700073	9136.483398	11547.718750	-0.116646
643.879150	1245.165039	9021.231445	11333.035156	-0.113040
644.213989	1227.086426	8869.823242	11134.170898	-0.112697
644.548828	1236.125732	8989.594727	11222.303711	-0.109903
644.883545	1197.708618	9070.948242	11116.091797	-0.100287
645.218262	1220.306885	8718.415039	11009.879883	-0.115812
645.552856	1206.747925	8987.333984	10856.211914	-0.093491
645.887573	1283.582031	9014.452148	11007.620117	-0.099618
646.222107	1227.086426	9086.766602	10914.967773	-0.090824
646.556580	1276.802612	8858.524414	10792.936523	-0.098693
646.891113	1240.645386	8872.083008	11170.328125	-0.114329
647.225586	1206.747925	8833.666016	10948.865234	-0.106304
647.559937	1199.968506	8964.736328	10575.993164	-0.081890
647.894226	1211.267578	8824.626953	10795.196289	-0.099967
648.228577	1315.219727	9066.428711	10750.000000	-0.085362
648.562927	1179.630005	8921.799805	10743.220703	-0.091758
648.897095	1290.361572	8842.705078	10770.338867	-0.098726
649.231262	1222.566772	8894.681641	10731.920898	-0.093236
649.565430	1303.920532	8973.775391	10562.434570	-0.081754
649.899475	1152.512085	8831.406250	10420.065430	-0.081666
650.233521	1270.023071	8625.761719	10406.505859	-0.094153
650.567505	1213.527466	8928.579102	10413.285156	-0.076438
650.901428	1222.566772	8894.681641	10401.986328	-0.077900
651.235413	1229.346191	8817.847656	10275.436523	-0.076305
651.569275	1202.228271	8806.547852	10311.593750	-0.078428
651.903015	1398.833252	8926.319336	10151.145508	-0.065473
652.236816	1181.889893	8835.925781	10273.176758	-0.074735
652.570618	1231.606079	8808.807617	10029.115234	-0.064851
652.904297	1308.440186	8883.382813	10200.862305	-0.069641
653.237915	1145.732544	8639.321289	9848.329102	-0.064959
653.571533	1213.527466	8555.707031	9913.863281	-0.073711
653.905090	1351.376953	8551.187500	10008.776367	-0.080066
654.238586	1242.905151	8463.054688	9669.802734	-0.067122
654.572021	1211.267578	8424.637695	9735.336914	-0.072509
654.905457	1168.330933	8496.952148	9554.550781	-0.058544
655.238892	1247.424805	8492.432617	9486.755859	-0.055853
655.572144	1251.944458	8458.535156	9477.716797	-0.057447
655.905457	1199.968506	8293.567383	9590.708008	-0.072934
656.238708	1220.306885	8395.259766	9421.221680	-0.058043
656.571960	1188.669312	8316.166016	9405.402344	-0.061762
656.905090	1206.747925	8318.425781	9312.750000	-0.056835
657.238159	1197.708618	8463.054688	9342.126953	-0.049604
657.571289	1351.376953	8386.220703	9452.859375	-0.061310
657.904358	1258.723999	8447.235352	9272.072266	-0.047175
658.237305	1222.566772	8463.054688	9443.819336	-0.055170
658.570190	1283.582031	8589.604492	9518.393555	-0.051973
658.903076	1206.747925	8885.642578	9531.953125	-0.035096
659.236023	1247.424805	8860.784180	9473.197266	-0.033600
659.568787	1199.968506	9037.050781	9798.612305	-0.040276
659.901428	1236.125732	9263.033203	9780.534180	-0.027134
660.234192	1195.448853	9470.937500	9814.431641	-0.017662
660.566895	1267.763306	9484.496094	9830.250000	-0.017901
660.899536	1303.920532	9394.103516	9997.477539	-0.031239
661.232056	1260.983765	9452.859375	9891.265625	-0.022642
661.564636	1220.306885	9321.789063	9656.243164	-0.017569
661.897156	1274.542725	8887.902344	9380.543945	-0.027230
662.229553	1249.684692	8698.076172	9240.435547	-0.030525
662.561951	1229.346191	8648.360352	9159.081055	-0.028912
662.894287	1319.739380	8804.288086	9265.292969	-0.025959
663.226685	1229.346191	8316.166016	8779.430664	-0.027500
663.558899	1290.361572	8212.213867	8883.382813	-0.040192
663.891052	1206.747925	7889.058105	8650.620117	-0.046872
664.223328	1242.905151	8115.041016	8567.006836	-0.027663
664.555420	1215.787231	7925.215332	8544.408203	-0.038337
664.887512	1152.512085	7719.571289	8250.630859	-0.033772
665.219543	1195.448853	7889.058105	8264.189453	-0.023682
665.551575	1285.841919	7647.256836	8033.687012	-0.025611
665.883545	1175.110352	7520.706055	8040.466797	-0.034191
666.215454	1150.252197	7486.809082	8191.875000	-0.045819
666.547302	1145.732544	7613.359375	7938.774414	-0.021319
666.879150	1297.140991	7660.815430	8189.615234	-0.034667
667.210938	1227.086426	7626.917969	7999.789551	-0.024593
667.542664	1242.905151	7665.335449	7995.270020	-0.021757
667.874268	1193.188965	7387.376465	7974.931641	-0.039357
668.205994	1233.865845	7604.319824	8035.946777	-0.028471
668.537537	1274.542725	7556.863770	7807.704590	-0.017003
668.869080	1220.306885	7364.778320	7877.759277	-0.034824
669.200562	1238.385498	7450.651855	7755.728516	-0.020820
669.532043	1258.723999	7495.848145	7805.444336	-0.021039
669.863525	1288.101685	7733.129883	7852.900879	-0.007997
670.194824	1242.905151	7495.848145	7891.317871	-0.026634
670.526184	1274.542725	7633.697754	7812.224121	-0.012024
670.857483	1231.606079	7351.219238	7814.483887	-0.031692
671.188660	1242.905151	7484.548828	7760.248047	-0.018772
671.519897	1242.905151	7385.116699	7583.981445	-0.013838
671.851013	1220.306885	7513.926758	7527.485840	-0.000935
672.182129	1288.101685	7400.935547	7382.856934	0.001286
672.513184	1166.071045	7215.629395	7466.470215	-0.017644
672.844238	1247.424805	7457.431152	7532.005371	-0.005184
673.175171	1301.660645	7351.219238	7405.455078	-0.003876
673.506104	1256.464111	7430.312988	7299.243164	0.009319
673.836975	1222.566772	7296.983398	7339.919922	-0.003059
674.167786	1236.125732	7190.771484	7077.780273	0.008320
674.498596	1242.905151	7231.448242	7077.780273	0.011290
674.829407	1215.787231	6917.332520	7098.118652	-0.013557
675.160034	1292.621338	6885.694824	7204.330566	-0.024063
675.490723	1249.684692	7136.535645	7226.928711	-0.006618
675.821289	1172.850586	7050.662109	7084.559570	-0.002497
676.151917	1222.566772	6978.347656	7066.480957	-0.006600
676.482422	1247.424805	6847.277832	7113.937500	-0.020203
676.812927	1238.385498	6930.891113	6935.411133	-0.000345
677.143311	1276.802612	7050.662109	6939.930664	0.008410
677.473694	1218.047119	6906.033203	6964.788574	-0.004463
677.804016	1245.165039	6948.969727	6939.930664	0.000689
678.134338	1240.645386	6906.033203	6976.087891	-0.005337
678.464539	1258.723999	7034.843262	6985.126953	0.003754
678.794800	1236.125732	7122.976563	7064.221191	0.004356
679.124878	1301.660645	7238.228027	7080.040039	0.011729
679.455078	1190.929199	7095.858887	7028.063965	0.005015
679.785095	1240.645386	7071.000488	7025.804199	0.003380
680.115173	1186.409546	7254.046875	7023.544434	0.016820
680.445129	1213.527466	7265.345703	7267.605469	-0.000162
680.775024	1260.983765	7430.312988	7107.157715	0.023366
681.104919	1199.968506	7389.636230	7138.795410	0.017967
681.434814	1184.149658	7446.131836	7208.850098	0.016776
681.764526	1154.771851	7439.352539	7122.976563	0.022433
682.094360	1206.747925	7522.966309	7211.109863	0.021990
682.424011	1351.376953	7658.555664	7183.992188	0.033972
682.753723	1272.282959	7518.446289	7145.574707	0.026732
683.083313	1265.503418	7452.911621	7100.378418	0.025477
683.412903	1242.905151	7443.872070	7064.221191	0.027438
683.742432	1215.787231	7170.433105	6847.277832	0.024233
684.071899	1251.944458	7012.245117	6935.411133	0.005832
684.401306	1358.156372	7134.275879	6754.624512	0.029527
684.730713	1199.968506	6996.426270	6548.980469	0.034889
685.060059	1265.503418	6899.253906	6743.325684	0.012190
685.389404	1181.889893	6899.253906	6506.043457	0.030945
685.718628	1303.920532	6761.404297	6474.406250	0.023461
686.047852	1267.763306	6741.065918	6397.571777	0.028148
686.376953	1274.542725	6637.113770	6481.185547	0.012815
686.706116	1290.361572	6564.799316	6510.563477	0.004489
687.035156	1263.243652	6569.318848	6336.556641	0.019482
687.364197	1276.802612	6616.775391	6214.525879	0.034012
687.693176	1220.306885	6499.264160	6345.595703	0.012830
688.022156	1265.503418	6695.869141	6707.168457	-0.000903
688.351013	1179.630005	6820.159668	6334.296875	0.039119
688.679871	1249.684692	6761.404297	6354.635254	0.033296
689.008606	1204.488159	6806.600586	6420.170410	0.031041
689.337402	1227.086426	6628.074219	6370.454102	0.021226
689.666138	1263.243652	6553.500000	6196.447266	0.030348
689.994751	1279.062378	6539.940918	6110.573730	0.036975
690.323364	1245.165039	6551.240234	6124.132813	0.036445
690.651917	1222.566772	6458.587402	6076.676270	0.032892
690.980469	1434.990479	6390.792480	6110.573730	0.025278
691.308960	1292.621338	6341.076172	5945.606445	0.035427
691.637451	1276.802612	6112.833496	5945.606445	0.015283
691.965759	1270.023071	6101.534668	5751.261230	0.032685
692.294128	1270.023071	5882.331055	5699.285156	0.017587
692.622437	1141.212891	5938.827148	5776.119141	0.014984
692.950684	1315.219727	5943.346680	5672.167480	0.026223
693.278870	1215.787231	5850.693848	5534.317871	0.030705
693.607117	1227.086426	5963.685059	5579.514160	0.036735
693.935120	1188.669312	5760.300781	5385.169434	0.037184
694.263245	1270.023071	5812.276855	5504.939941	0.030427
694.591248	1274.542725	5794.198242	5439.405273	0.035505
694.919250	1274.542725	5904.929688	5389.688965	0.051232
695.247192	1231.606079	5719.623535	5471.042480	0.024746
695.575073	1387.534180	5701.544922	5358.051270	0.036034
695.902893	1283.582031	5814.536621	5400.987793	0.041566
696.230774	1193.188965	5728.663086	5339.972656	0.038911
696.558411	1238.385498	5769.339844	5441.665039	0.032601
696.886169	1279.062378	5735.442383	5439.405273	0.029853
697.213806	1258.723999	6042.778809	5425.846191	0.059960
697.541443	1218.047119	5984.023438	5588.553711	0.037620
697.869019	1181.889893	5925.268066	5645.049316	0.026445
698.196533	1220.306885	6110.573730	5753.520996	0.032926
698.524048	1229.346191	6347.855957	5913.968750	0.038469
698.851501	1285.841919	6609.995605	5979.503906	0.054739
699.178772	1213.527466	6695.869141	6124.132813	0.047831
699.506226	1249.684692	6887.954590	6386.272949	0.040471
699.833435	1299.400879	6991.906738	6424.689941	0.045585
700.160767	1260.983765	7019.024414	6341.076172	0.054403
700.487915	1242.905151	6824.679199	6115.093750	0.059048
700.815063	1188.669312	6623.554688	6074.416504	0.046259
701.142151	1172.850586	6598.696777	6017.920898	0.049167
701.469238	1276.802612	6501.523926	5902.669922	0.052870
701.796265	1249.684692	6406.611328	5886.851074	0.046138
702.123230	1218.047119	6216.785645	5617.931641	0.055419
702.450134	1288.101685	6072.156738	5520.758789	0.053183
702.777039	1351.376953	5972.724609	5432.625488	0.053976
703.103882	1281.322266	5785.158691	5292.516113	0.050309
703.430664	1256.464111	5620.191406	5222.461426	0.041505
703.757385	1202.228271	5565.955566	5098.170898	0.049245
704.084106	1136.693237	5482.341797	4813.432617	0.072592
704.410767	1222.566772	5328.673340	4935.463379	0.043717
704.737366	1272.282959	5333.193359	4842.810547	0.055891
705.063904	1358.156372	5319.634277	4806.653320	0.060227
705.390442	1220.306885	5086.872070	4824.731934	0.030489
705.716919	1220.306885	5141.107910	4826.991699	0.036267
706.043396	1177.370239	5034.895996	4709.480957	0.038275
706.369690	1263.243652	5019.077148	4761.456543	0.030860
706.696106	1333.298340	5147.887207	4720.779785	0.051571
707.022278	1351.376953	5170.485352	4664.284180	0.061753
707.348633	1206.747925	5034.895996	4596.489258	0.052822
707.674805	1224.826538	5007.777832	4643.945801	0.043916
708.000916	1265.503418	5109.470215	4797.614258	0.036745
708.327026	1220.306885	5116.249512	4553.552734	0.067745
708.653076	1209.007813	5123.029297	4560.332031	0.067407
708.979065	1172.850586	5046.194824	4499.316895	0.066103
709.305054	1251.944458	4897.046387	4734.338867	0.019832
709.630920	1240.645386	5127.548828	4709.480957	0.049420
709.956787	1181.889893	5032.636230	4646.205566	0.045927
710.282593	1213.527466	5220.201660	4666.543945	0.064585
710.608459	1227.086426	5204.382813	4621.347656	0.068843
710.934082	1190.929199	5125.289063	4573.891113	0.065577
711.259827	1224.826538	5206.642578	4736.598633	0.054555
711.585449	1204.488159	5127.548828	4788.574707	0.039247
711.911072	1222.566772	5319.634277	4969.360840	0.038813
712.236572	1181.889893	5272.177734	4874.448242	0.044427
712.562073	1233.865845	5448.444336	4892.526855	0.061432
712.887512	1199.968506	5287.996582	4716.260254	0.065429
713.213013	1245.165039	5278.957520	4813.432617	0.053256
713.538330	1240.645386	5382.909180	4899.306152	0.053916
713.863647	1159.291626	5202.123047	4646.205566	0.064244
714.188904	1245.165039	5222.461426	4605.528809	0.073202
714.514099	1263.243652	5224.721680	4558.072266	0.080024
714.839294	1254.204346	5010.037598	4702.701172	0.037076
715.164490	1281.322266	5217.941895	4639.426270	0.069029
715.489502	1294.881226	5091.391602	4619.087402	0.057697
715.814575	1220.306885	5007.777832	4634.906250	0.045010
716.139526	1321.999146	5222.461426	4682.362793	0.064730
716.464539	1157.031738	5111.729980	4589.709961	0.061480
716.789368	1258.723999	5048.455078	4438.301270	0.076239
717.114258	1272.282959	4953.541992	4637.166504	0.039026
717.439026	1190.929199	4960.321777	4515.135742	0.054583
717.763794	1188.669312	4924.164551	4307.231445	0.078394
718.088440	1195.448853	4856.369629	4488.017578	0.046055
718.413208	1175.110352	4743.377930	4268.814453	0.061979
718.737793	1215.787231	4723.039551	4345.648438	0.049442
719.062378	1292.621338	4867.668457	4404.403809	0.060273
719.386841	1218.047119	4621.347656	4264.294922	0.048135
719.711304	1218.047119	4469.938965	4198.759766	0.037816
720.035767	1224.826538	4463.159668	4178.421387	0.039971
720.360168	1256.464111	4612.308105	4137.744141	0.066216
720.684570	1265.503418	4449.600586	4106.106934	0.049576
721.008789	1383.014526	4469.938965	4106.106934	0.054464
721.333069	1358.156372	4512.875977	3999.894775	0.077071
721.657227	1283.582031	4320.790527	3941.139404	0.057992
721.981445	1254.204346	4341.128906	3877.864258	0.070618
722.305481	1292.621338	4230.397461	3846.226563	0.060865
722.629578	1247.424805	4289.152832	3843.966797	0.068725
722.953552	1251.944458	4275.593750	3880.124023	0.060876
723.277588	1272.282959	4262.034668	3900.462402	0.055980
723.601440	1215.787231	4241.696289	3769.392578	0.073702
723.925354	1251.944458	4169.381836	3737.754883	0.069534
724.249146	1297.140991	4225.877441	3902.722168	0.050776
724.572937	1211.267578	4164.862305	3904.982178	0.039999
724.896667	1276.802612	4277.853516	3814.589111	0.072818
725.220398	1251.944458	4187.460449	3825.888184	0.057085
725.543945	1238.385498	4158.083008	3749.053955	0.065549
725.867615	1220.306885	4162.602539	3837.187256	0.050902
726.191101	1215.787231	4273.333984	3764.872803	0.078989
726.514648	1319.739380	4212.318848	3965.997559	0.038653
726.838074	1306.180420	4248.476074	3895.942871	0.055426
727.161499	1263.243652	4307.231445	3733.235107	0.090747
727.484863	1188.669312	4332.089355	3891.423096	0.065596
727.808228	1285.841919	4352.428223	3945.658936	0.061803
728.131470	1240.645386	4408.923828	3950.178711	0.067929
728.454712	1312.959839	4413.443359	3947.918945	0.070656
728.777832	1152.512085	4440.561035	3938.879639	0.071900
729.101013	1195.448853	4465.419434	4022.493164	0.063211
729.424011	1290.361572	4488.017578	4008.934082	0.070491
729.747070	1231.606079	4510.615723	3995.375244	0.074241
730.070068	1292.621338	4510.615723	4013.453857	0.072883
730.393005	1220.306885	4476.718262	3979.556396	0.071948
730.715881	1263.243652	4467.679199	3938.879639	0.078325
731.038757	1170.590698	4463.159668	3929.840332	0.076744
731.361572	1240.645386	4356.947754	3956.958252	0.059660
731.684326	1186.409546	4420.222656	3918.541016	0.073213
732.007019	1319.739380	4465.419434	4029.272705	0.064820
732.329712	1190.929199	4481.238281	4092.547852	0.054596
732.652283	1204.488159	4460.899902	3972.776855	0.070528
732.974854	1190.929199	4558.072266	4045.091309	0.071783
733.297363	1274.542725	4639.426270	4115.145996	0.073559
733.619873	1245.165039	4524.174805	4060.910156	0.066149
733.942261	1204.488159	4275.593750	3880.124023	0.059868
734.264648	1283.582031	4402.144043	3929.840332	0.071322
734.586975	1249.684692	4361.467285	3889.163330	0.071491
734.909302	1123.134277	4291.412598	3710.636963	0.087943
735.231506	1181.889893	4304.971680	3868.824951	0.065326
735.553711	1211.267578	4248.476074	3828.147949	0.064691
735.875854	1272.282959	4347.908203	3751.313721	0.093652
736.197937	1224.826538	4115.145996	3658.660889	0.074655
736.519958	1168.330933	4146.783691	3638.322510	0.081295
736.841980	1242.905151	4051.870850	3645.102051	0.067938
737.163940	1197.708618	3943.399170	3640.582275	0.050751
737.485840	1301.660645	4099.327148	3561.488281	0.092721
737.807678	1256.464111	4002.154785	3638.322510	0.061736
738.129517	1184.149658	3868.824951	3491.433594	0.065791
738.451233	1321.999146	3914.021484	3568.267822	0.062177
738.773010	1242.905151	4060.910156	3502.732910	0.095866
739.094666	1211.267578	4033.792236	3552.448975	0.081203
739.416260	1353.636719	4160.342773	3712.896729	0.075421
739.737854	1204.488159	4002.154785	3703.857422	0.048966
740.059448	1231.606079	4040.571777	3538.890137	0.085445
740.380859	1218.047119	4110.626465	3642.842041	0.076610
740.702332	1138.953125	3959.218018	3577.307129	0.063193
741.023682	1222.566772	3900.462402	3647.361816	0.043119
741.345032	1227.086426	3961.477783	3443.977295	0.091116
741.666321	1297.140991	4029.272705	3518.551514	0.089873
741.987549	1213.527466	3909.501709	3477.874756	0.075773
742.308777	1274.542725	3959.218018	3441.717529	0.092998
742.629944	1213.527466	3846.226563	3486.914063	0.063728
742.950989	1328.778687	3859.785645	3396.520996	0.087797
743.272095	1229.346191	3665.440430	3378.442383	0.054438
743.593140	1290.361572	3740.014648	3428.158447	0.059138
743.914063	1218.047119	3620.243896	3145.679932	0.095584
744.234985	1209.007813	3672.219971	3236.073242	0.084634
744.555847	1279.062378	3715.156494	3211.215088	0.100653
744.876648	1270.023071	3608.944580	3125.341553	0.100597
745.197449	1229.346191	3495.953369	3129.861328	0.076505
745.518188	1283.582031	3624.763428	3240.592773	0.077842
745.838867	1281.322266	3624.763428	3213.474854	0.083813
746.159485	1335.558105	3486.914063	3324.206299	0.034154
746.480042	1218.047119	3491.433594	3129.861328	0.075228
746.800537	1260.983765	3355.843994	3093.704102	0.058059
747.121094	1303.920532	3462.055908	3186.356934	0.059358
747.441528	1238.385498	3547.929443	3206.695313	0.069433
747.761902	1267.763306	3439.457520	3048.507568	0.086197
748.082275	1204.488159	3450.756836	3147.939941	0.062888
748.402588	1369.455566	3559.228516	3285.789307	0.057928
748.722839	1342.337646	3538.890137	3147.939941	0.085119
749.043030	1238.385498	3464.315674	3123.081787	0.072270
749.363159	1231.606079	3543.409668	3109.522705	0.090275
749.683289	1285.841919	3547.929443	3136.640625	0.087150
750.003357	1163.811279	3568.267822	3138.900635	0.085430
750.323303	1204.488159	3437.197754	3075.625488	0.076727
750.643311	1218.047119	3502.732910	3177.317627	0.066732
750.963257	1398.833252	3606.684814	3312.907227	0.062011
751.283142	1281.322266	3536.630127	3227.033936	0.064127
751.602905	1213.527466	3430.418213	2924.217041	0.112573
751.922729	1355.896606	3629.283203	3154.719238	0.101685
752.242432	1251.944458	3439.457520	3086.924561	0.076319
752.562134	1229.346191	3373.922607	3075.625488	0.065044
752.881714	1254.204346	3242.852539	2989.751953	0.059121
753.201355	1299.400879	3360.363770	3073.365479	0.065125
753.520874	1215.787231	3283.529541	2829.304199	0.107723
753.840393	1258.723999	3468.835449	3016.869873	0.099359
754.159851	1283.582031	3394.260986	3066.586182	0.073270
754.479248	1276.802612	3398.780762	3023.649414	0.084486
754.798523	1294.881226	3326.466309	3019.129639	0.071235
755.117859	1254.204346	3206.695313	3005.570801	0.047212
755.437134	1229.346191	3251.891846	2973.933105	0.064206
755.756348	1301.660645	3373.922607	3032.688721	0.078141
756.075500	1260.983765	3265.450928	2973.933105	0.068254
756.394653	1247.424805	3299.348389	2928.736572	0.086513
756.713623	1270.023071	3233.813232	2881.280273	0.085930
757.032654	1260.983765	3389.741455	3001.051025	0.087560
757.351624	1272.282959	3346.804688	2876.760498	0.111584
757.670532	1242.905151	3421.378906	2930.996338	0.110756
757.989441	1181.889893	3328.726074	2937.775879	0.087303
758.308289	1229.346191	3342.285156	2973.933105	0.083194
758.627014	1240.645386	3346.804688	2960.374268	0.088031
758.945801	1227.086426	3340.025146	2888.059570	0.104524
759.264404	1263.243652	3405.560303	2917.437500	0.112297
759.583130	1312.959839	3464.315674	2962.634033	0.115314
759.901611	1310.700073	3367.143066	2930.996338	0.103522
760.220215	1260.983765	3434.937988	3100.483398	0.072551
760.538635	1360.416260	3416.859375	3030.428711	0.090397
760.857117	1231.606079	3349.064453	2951.334961	0.090355
761.175537	1340.077759	3468.835449	3179.577393	0.063427
761.493896	1306.180420	3330.985840	2960.374268	0.087797
761.812134	1236.125732	3335.505615	2973.933105	0.082089
762.130432	1360.416260	3527.590820	3095.963867	0.096457
762.448608	1265.503418	3484.654297	3075.625488	0.088479
762.766785	1373.975220	3480.134521	3136.640625	0.077321
763.084900	1324.259033	3448.496826	3177.317627	0.059314
763.402954	1231.606079	3611.204590	3163.758545	0.090462
763.720947	1116.354858	3762.613037	3242.852539	0.094967
764.038940	1240.645386	3959.218018	3392.001221	0.101629
764.356750	1312.959839	4160.342773	3735.495117	0.070176
764.674683	1238.385498	4182.940918	3681.259277	0.081119
764.992493	1224.826538	4162.602539	3688.038574	0.076517
765.310303	1283.582031	4314.010742	3724.195801	0.094005
765.627930	1249.684692	4320.790527	3663.180664	0.104648
765.945679	1337.817993	4343.388672	3674.479736	0.109331
766.263306	1294.881226	4042.831543	3416.859375	0.112268
766.580872	1247.424805	3814.589111	3430.418213	0.070401
766.898376	1321.999146	3726.455811	3233.813232	0.099571
767.215881	1172.850586	3692.558350	3095.963867	0.117345
767.533325	1288.101685	3608.944580	3080.145020	0.112297
767.850708	1251.944458	3362.623535	3048.507568	0.069980
768.168030	1263.243652	3337.765381	3025.909180	0.070748
768.485352	1310.700073	3227.033936	3003.310791	0.053914
768.802551	1260.983765	3222.514160	2924.217041	0.071642
769.119751	1245.165039	3220.254395	2804.446045	0.102662
769.436890	1265.503418	3184.097168	2811.225586	0.093852
769.753967	1193.188965	3190.876709	2743.430664	0.110128
770.071045	1254.204346	3095.963867	2725.352051	0.097577
770.388062	1276.802612	3107.262939	2781.847900	0.085011
770.704956	1233.865845	2928.736572	2646.258057	0.079181
771.021912	1294.881226	3048.507568	2750.210205	0.080976
771.338684	1222.566772	2955.854492	2802.186279	0.040318
771.655579	1236.125732	2982.972412	2653.037598	0.090912
771.972351	1301.660645	3150.199707	2695.974365	0.122468
772.289063	1190.929199	2937.775879	2714.052979	0.059520
772.605713	1258.723999	3012.350098	2747.950439	0.070976
772.922302	1188.669312	2847.382813	2650.777832	0.054792
773.238831	1245.165039	2978.452881	2610.100830	0.103758
773.555420	1378.494873	3086.924561	2777.328125	0.086831
773.871826	1267.763306	2949.074951	2544.565918	0.119524
774.188293	1279.062378	2921.957031	2616.880371	0.089213
774.504639	1301.660645	2881.280273	2607.841064	0.082549
774.820984	1227.086426	2851.902344	2594.281982	0.074974
775.137207	1292.621338	2863.201660	2576.203369	0.087637
775.453552	1170.590698	2779.587891	2533.266846	0.072163
775.769592	1317.479492	2813.485352	2503.888916	0.100699
776.085815	1220.306885	2818.005127	2519.707764	0.089752
776.401855	1202.228271	2838.343506	2445.133545	0.119376
776.717896	1238.385498	2824.784424	2460.952393	0.113140
777.033875	1285.841919	2793.146973	2657.557373	0.040937
777.349854	1233.865845	2840.603271	2506.148926	0.101361
777.665710	1229.346191	2756.989746	2458.692383	0.094348
777.981567	1281.322266	2876.760498	2440.613770	0.138687
778.297363	1166.071045	2829.304199	2336.661865	0.152548
778.613098	1199.968506	2784.107666	2431.574463	0.109322
778.928772	1218.047119	2664.336670	2474.511230	0.061105
779.244385	1315.219727	2775.068359	2553.605225	0.071452
779.559998	1267.763306	2799.926514	2585.242676	0.065561
779.875488	1175.110352	2695.974365	2429.314697	0.083722
780.191040	1288.101685	2790.887207	2454.172852	0.110172
780.506470	1163.811279	2707.273438	2485.810303	0.067265
780.821899	1238.385498	2756.989746	2494.849609	0.082295
781.137207	1136.693237	2808.965820	2408.976318	0.118723
781.452576	1190.929199	2662.076904	2431.574463	0.074009
781.767822	1258.723999	2865.461426	2469.991699	0.122705
782.083069	1233.865845	2718.572510	2363.779785	0.118595
782.398193	1195.448853	2655.297363	2366.039551	0.095903
782.713379	1276.802612	2691.454590	2418.015625	0.093283
783.028381	1392.053833	2693.714600	2458.692383	0.086481
783.343384	1229.346191	2603.321289	2363.779785	0.083200
783.658386	1256.464111	2628.179443	2368.299316	0.091224
783.973328	1238.385498	2666.596680	2406.716309	0.087227
784.288086	1355.896606	2745.690430	2469.991699	0.096028
784.602966	1308.440186	2560.384766	2305.024170	0.099071
784.917725	1297.140991	2695.974365	2395.417236	0.105054
785.232483	1233.865845	2476.770996	2372.819092	0.037932
785.547119	1333.298340	2585.242676	2341.181396	0.094175
785.861755	1288.101685	2544.565918	2307.283936	0.090898
786.176270	1238.385498	2594.281982	2345.701172	0.087955
786.490845	1218.047119	2546.825684	2291.465088	0.092684
786.805298	1145.732544	2497.109619	2230.449951	0.095460
787.119751	1240.645386	2594.281982	2350.220703	0.086345
787.434143	1157.031738	2533.266846	2178.473877	0.129479
787.748474	1138.953125	2558.124756	2334.401855	0.074504
788.062744	1290.361572	2562.644531	2334.401855	0.085866
788.377014	1188.669312	2553.605225	2268.866943	0.101609
788.691162	1211.267578	2689.194824	2418.015625	0.088036
789.005310	1229.346191	2691.454590	2336.661865	0.120708
789.319397	1186.409546	2619.140137	2377.338623	0.080279
789.633423	1195.448853	2607.841064	2361.519775	0.083230
789.947449	1294.881226	2662.076904	2422.535156	0.083655
790.261414	1229.346191	2677.895752	2372.819092	0.102707
790.575256	1118.614624	2732.131592	2354.740479	0.115711
790.889160	1267.763306	2653.037598	2454.172852	0.067301
791.202881	1175.110352	2562.644531	2275.646484	0.100639
791.516663	1276.802612	2472.251465	2327.622559	0.056003
791.830322	1211.267578	2494.849609	2323.102783	0.062383
792.144043	1247.424805	2442.873535	2295.984863	0.056938
792.457581	1211.267578	2533.266846	2320.843018	0.076074
792.771118	1233.865845	2551.345459	2187.513184	0.140356
793.084656	1326.518799	2521.967529	2314.063477	0.082974
793.398071	1292.621338	2431.574463	2241.749023	0.079181
793.711487	1222.566772	2433.834229	2117.458496	0.131470
794.024841	1251.944458	2370.559082	2085.820801	0.127579
794.338135	1328.778687	2370.559082	2232.709717	0.061641
794.651428	1175.110352	2375.078857	2149.095947	0.090617
794.964600	1279.062378	2497.109619	2300.504395	0.076450
795.277771	1233.865845	2325.362549	2219.150635	0.044461
795.590881	1324.259033	2399.937012	2171.694336	0.103576
795.903931	1331.038452	2472.251465	2316.323242	0.063805
796.216980	1211.267578	2447.393311	2216.890869	0.089627
796.529907	1303.920532	2558.124756	2341.181396	0.082480
796.842834	1215.787231	2449.653076	2255.307861	0.074435
797.155701	1342.337646	2515.188232	2311.803711	0.082710
797.468506	1265.503418	2655.297363	2307.283936	0.125174
797.781250	1283.582031	2515.188232	2311.803711	0.078385
798.093994	1186.409546	2528.747070	2167.174561	0.136297
798.406677	1279.062378	2442.873535	2187.513184	0.107581
798.719238	1204.488159	2384.118164	2221.410645	0.064458
799.031921	1204.488159	2508.408691	2180.733643	0.125692
799.344360	1290.361572	2467.731689	2244.008789	0.091525
799.656860	1170.590698	2357.000244	2194.292725	0.064061
799.969299	1193.188965	2408.976318	2092.600342	0.130899
800.281677	1193.188965	2329.882324	2119.718262	0.088784
800.593933	1166.071045	2314.063477	2169.434570	0.058481
800.906250	1204.488159	2185.253418	2216.890869	-0.013788
801.218445	1209.007813	2284.685791	2090.340576	0.086542
801.530640	1195.448853	2341.181396	2081.301270	0.111722
801.842712	1231.606079	2357.000244	2110.678955	0.107280
802.154846	1292.621338	2363.779785	2074.521729	0.136702
802.466797	1274.542725	2302.764404	2056.443115	0.118935
802.778870	1276.802612	2207.851563	2045.144043	0.083418
803.090759	1283.582031	2332.142090	2155.875488	0.079931
803.402649	1202.228271	2248.528564	2011.246582	0.111698
803.714478	1184.149658	2160.395264	1979.609009	0.088941
804.026245	1306.180420	2221.410645	2097.120117	0.063387
804.337952	1294.881226	2232.709717	2058.702881	0.089131
804.649658	1301.660645	2275.646484	2099.379883	0.086703
804.961243	1240.645386	2284.685791	2076.781494	0.096440
805.272888	1240.645386	2305.024170	2128.757568	0.078628
805.584412	1270.023071	2239.489258	2131.017334	0.051532
805.895874	1175.110352	2164.914795	2079.041504	0.039414
806.207336	1258.723999	2244.008789	2094.860107	0.071285
806.518677	1260.983765	2246.268555	2119.718262	0.059703
806.830017	1125.394165	2298.244629	2056.443115	0.100270
807.141357	1168.330933	2293.725098	2042.884155	0.109518
807.452576	1224.826538	2363.779785	2090.340576	0.119232
807.763733	1224.826538	2289.205322	2090.340576	0.089822
808.074890	1263.243652	2345.701172	2067.742188	0.128886
808.385925	1364.935913	2300.504395	2097.120117	0.106455
808.697021	1197.708618	2282.425781	1934.412476	0.168024
809.007935	1299.400879	2323.102783	2079.041504	0.118279
809.318909	1326.518799	2239.489258	2133.277344	0.053713
809.629822	1272.282959	2223.670410	2092.600342	0.064376
809.940674	1188.669312	2115.198730	2036.104736	0.038753
810.251404	1258.723999	2106.159424	2020.285889	0.046401
810.562195	1321.999146	2273.386475	2103.899414	0.085206
810.872864	1265.503418	2049.663574	1999.947388	0.028446
811.183533	1242.905151	2108.419189	2045.144043	0.032970
811.494080	1224.826538	2151.355957	1986.388428	0.085154
811.804626	1245.165039	2173.954102	1936.672241	0.128120
812.115112	1274.542725	2101.639648	1945.711548	0.090725
812.425598	1209.007813	2083.561035	1909.554321	0.096349
812.735962	1199.968506	2097.120117	1866.617554	0.128969
813.046326	1256.464111	2187.513184	1986.388428	0.105695
813.356628	1367.195679	2239.489258	2008.986694	0.133269
813.666870	1360.416260	2119.718262	1938.932129	0.118099
813.976990	1254.204346	2047.403809	1925.373169	0.072551
814.287170	1159.291626	2072.261963	1810.121948	0.146989
814.597290	1288.101685	2036.104736	2004.467041	0.018769
814.907349	1220.306885	2031.585083	1789.783447	0.153694
815.217346	1403.352905	2198.812256	2088.080811	0.065100
815.527283	1272.282959	2108.419189	2022.545654	0.047064
815.837158	1213.527466	1986.388428	1950.231201	0.020809
816.147034	1249.684692	2205.591797	2002.207275	0.103896
816.456787	1333.298340	2074.521729	1945.711548	0.082905
816.766541	1263.243652	2065.482422	2004.467041	0.034355
817.076233	1238.385498	2072.261963	2011.246582	0.033000
817.385925	1301.660645	2121.978027	2015.766235	0.060219
817.695496	1392.053833	2305.024170	2178.473877	0.064802
818.005066	1346.857300	2128.757568	1961.530396	0.104507
818.314514	1351.376953	2137.796875	1970.569702	0.103829
818.623962	1251.944458	2038.364502	1952.491089	0.050218
818.933350	1274.542725	2054.183350	1855.318481	0.127886
819.242737	1342.337646	2151.355957	2020.285889	0.076762
819.552002	1184.149658	2180.733643	1938.932129	0.120692
819.861328	1224.826538	2262.087402	1961.530396	0.148595
820.170471	1147.992432	2248.528564	1957.010742	0.133646
820.479675	1224.826538	2282.425781	2167.174561	0.050110
820.788696	1263.243652	2325.362549	2176.214111	0.065716
821.097839	1276.802612	2413.495850	2146.836182	0.116107
821.406738	1326.518799	2474.511230	2307.283936	0.068374
821.715698	1220.306885	2630.439453	2298.244629	0.116666
822.024597	1233.865845	2858.681885	2485.810303	0.113219
822.333435	1306.180420	3360.363770	2903.878418	0.109145
822.642273	1231.606079	4126.445313	3708.377197	0.067739
822.950989	1251.944458	5220.201660	4501.576660	0.086766
823.259705	1236.125732	5855.213379	4985.179688	0.090635
823.568359	1333.298340	6497.004395	5538.837402	0.089140
823.876953	1326.518799	6955.749512	5706.064941	0.109020
824.185486	1283.582031	6978.347656	5839.394531	0.096910
824.494019	1240.645386	6971.568359	5744.481934	0.104642
824.802429	1247.424805	6234.864258	5258.618652	0.094604
825.110840	1297.140991	5678.946777	4671.063477	0.113518
825.419189	1199.968506	5113.989746	4341.128906	0.095533
825.727478	1206.747925	4747.897949	3981.816162	0.105871
826.035767	1138.953125	4551.292969	3834.927490	0.102337
826.343933	1258.723999	4277.853516	3608.944580	0.108773
826.652100	1186.409546	3920.801025	3428.158447	0.086274
826.960144	1186.409546	3764.872803	3222.514160	0.102561
827.268250	1172.850586	3703.857422	3236.073242	0.088747
827.576233	1335.558105	3753.573730	3423.638916	0.063712
827.884155	1331.038452	3864.305176	3279.009766	0.114098
828.192017	1254.204346	3900.462402	3364.883301	0.098210
828.499878	1256.464111	3848.486328	3335.505615	0.095776
828.807678	1265.503418	3855.265869	3369.403076	0.090235
829.115479	1267.763306	3819.108643	3369.403076	0.084211
829.423096	1258.723999	3681.259277	3181.837402	0.100265
829.730835	1197.708618	3385.221680	3043.987793	0.073653
830.038330	1236.125732	3206.695313	2718.572510	0.123613
830.345947	1274.542725	2973.933105	2790.887207	0.049495
830.653442	1211.267578	2811.225586	2533.266846	0.082877
830.960876	1193.188965	2673.375977	2447.393311	0.071948
831.268250	1184.149658	2610.100830	2316.323242	0.100192
831.575623	1315.219727	2429.314697	2268.866943	0.067534
831.882874	1236.125732	2431.574463	2124.238037	0.129063
832.190125	1166.071045	2316.323242	2094.860107	0.092876
832.497314	1358.156372	2295.984863	2151.355957	0.072741
832.804504	1358.156372	2325.362549	2042.884155	0.150001
833.111572	1285.841919	2121.978027	1984.128662	0.078243
833.418640	1256.464111	2221.410645	1966.050049	0.133498
833.725586	1276.802612	2223.670410	2112.938721	0.054012
834.032532	1138.953125	2354.740479	2237.229248	0.044146
834.339417	1281.322266	2596.541992	2375.078857	0.080078
834.646301	1303.920532	2664.336670	2436.094238	0.079759
834.953003	1297.140991	2766.029053	2537.786377	0.073341
835.259827	1267.763306	2921.957031	2562.644531	0.106356
835.566467	1312.959839	2982.972412	2625.919678	0.104468
835.873108	1195.448853	2885.799805	2533.266846	0.101580
836.179688	1213.527466	2741.170898	2413.495850	0.104852
836.486267	1215.787231	2549.085449	2413.495850	0.046576
836.792664	1227.086426	2492.589844	2361.519775	0.047484
837.099121	1254.204346	2454.172852	2219.150635	0.094667
837.405518	1342.337646	2436.094238	2205.591797	0.102782
837.711792	1245.165039	2323.102783	2173.954102	0.064677
838.018127	1206.747925	2214.631104	1990.908081	0.109005
838.324341	1211.267578	2196.552490	2063.222656	0.063145
838.630554	1202.228271	2097.120117	1895.995361	0.110557
838.936646	1199.968506	2101.639648	1792.043335	0.182672
839.242737	1204.488159	2051.923584	1855.318481	0.114639
839.548767	1236.125732	2027.065430	1855.318481	0.106318
839.854797	1249.684692	2013.506348	1859.838135	0.097553
840.160645	1294.881226	1950.231201	1776.224487	0.134018
840.466553	1184.149658	1925.373169	1814.641602	0.070270
840.772400	1157.031738	1895.995361	1846.279175	0.030248
841.078186	1245.165039	2011.246582	1841.759521	0.108596
841.383850	1260.983765	1997.687622	1776.224487	0.155283
841.689575	1229.346191	2022.545654	1717.468994	0.210853
841.995178	1274.542725	2103.899414	1877.916748	0.138155
842.300781	1245.165039	1873.397095	1825.940674	0.034112
842.606262	1220.306885	1902.774902	1737.807495	0.120171
842.911743	1326.518799	1941.191895	1828.200562	0.088216
843.217163	1294.881226	1898.255249	1760.405762	0.112644
843.522583	1265.503418	1850.798828	1676.792114	0.153228
843.827881	1319.739380	1773.964722	1724.248413	0.050343
844.133179	1308.440186	1785.263794	1622.556274	0.181268
844.438354	1267.763306	1785.263794	1627.075928	0.158438
844.743530	1218.047119	1744.586914	1633.855347	0.102538
845.048645	1312.959839	1776.224487	1751.366455	0.023952
845.353760	1310.700073	1724.248413	1679.051880	0.050263
845.658752	1351.376953	1796.562988	1773.964722	0.022625
845.963745	1360.416260	1771.704834	1742.327148	0.032185
846.268555	1213.527466	1615.776733	1561.540894	0.062899
846.573486	1290.361572	1674.532227	1520.864014	0.221849
846.878296	1346.857300	1740.067261	1690.351074	0.058706
847.183044	1272.282959	1665.492920	1536.682739	0.172363
847.487732	1279.062378	1647.414307	1507.305054	0.207866
847.792419	1181.889893	1674.532227	1620.296387	0.050655
848.097046	1242.905151	1590.918701	1604.477661	-0.016599
848.401611	1263.243652	1672.272461	1538.942627	0.171319
848.706055	1279.062378	1602.217773	1568.320313	0.048126
849.010559	1218.047119	1575.099854	1599.958008	-0.029230
849.314941	1306.180420	1685.831421	1645.154541	0.049218
849.619324	1240.645386	1586.398926	1466.628174	0.184691
849.923584	1168.330933	1577.359619	1468.887939	0.133827
850.227844	1229.346191	1557.021240	1437.250366	0.197580
850.532043	1170.590698	1543.462280	1419.171753	0.176091
850.836243	1193.188965	1525.383667	1471.147827	0.077412
851.140320	1195.448853	1545.722046	1423.691406	0.186010
851.444397	1222.566772	1665.492920	1552.501587	0.127903
851.748352	1283.582031	1584.139160	1523.123779	0.098546
852.052307	1306.180420	1642.894653	1532.163086	0.173186
852.356140	1231.606079	1552.501587	1536.682739	0.021955
852.660095	1283.582031	1590.918701	1638.375000	-0.062361
852.963806	1247.424805	1627.075928	1554.761353	0.091770
853.267578	1502.785400	1825.940674	1728.768066	0.155336
853.571228	1276.802612	1579.619507	1566.060547	0.019895
853.874939	1283.582031	1647.414307	1538.942627	0.153747
854.178467	1315.219727	1579.619507	1471.147827	0.229337
854.482056	1265.503418	1602.217773	1459.848633	0.238688
854.785461	1319.739380	1608.997314	1570.580200	0.061887
855.088989	1213.527466	1631.595581	1498.265747	0.166801
855.392273	1251.944458	1618.036621	1477.927246	0.209515
855.695679	1254.204346	1613.516968	1462.108521	0.237609
855.998901	1392.053833	1717.468994	1665.492920	0.075577
856.302185	1179.630005	1538.942627	1534.422974	0.005497
856.605286	1328.778687	1606.737427	1516.344360	0.170827
856.908508	1213.527466	1532.163086	1514.084473	0.025367
857.211548	1279.062378	1534.422974	1475.667480	0.113559
857.514587	1231.606079	1486.966553	1428.211060	0.113559
857.817566	1166.071045	1523.123779	1511.824707	0.013966
858.120483	1218.047119	1572.839966	1547.981934	0.031547
858.423340	1333.298340	1507.305054	1570.580200	-0.134699
858.726196	1270.023071	1561.540894	1482.446899	0.137462
859.028931	1358.156372	1636.115234	1559.281006	0.140515
859.331665	1195.448853	1489.226440	1432.730713	0.092754
859.634277	1229.346191	1588.658813	1525.383667	0.084126
859.936890	1120.874512	1599.958008	1509.564819	0.090807
860.239441	1233.865845	1509.564819	1462.108521	0.082038
860.541992	1283.582031	1645.154541	1493.746094	0.235637
860.844421	1229.346191	1532.163086	1493.746094	0.058919
861.146912	1193.188965	1493.746094	1441.770020	0.082459
861.449219	1152.512085	1482.446899	1416.911865	0.096167
861.751526	1306.180420	1584.139160	1484.706787	0.192278
862.053772	1344.597412	1627.075928	1541.202393	0.157391
862.355957	1340.077759	1563.800659	1525.383667	0.081821
862.658081	1281.322266	1618.036621	1520.864014	0.147880
862.960266	1184.149658	1502.785400	1498.265747	0.006204
863.262207	1274.542725	1520.864014	1489.226440	0.059703
863.564331	1331.038452	1568.320313	1527.643433	0.081670
863.866211	1213.527466	1520.864014	1453.069214	0.108233
864.168091	1218.047119	1455.328979	1441.770020	0.025554
864.469910	1188.669312	1511.824707	1387.534180	0.210853
864.771729	1134.433472	1509.564819	1518.604126	-0.010341
865.073425	1245.165039	1599.958008	1577.359619	0.028582
865.375122	1184.149658	1525.383667	1380.754639	0.239458
865.676819	1251.944458	1518.604126	1462.108521	0.103399
865.978333	1247.424805	1579.619507	1378.494873	0.403889
866.279907	1288.101685	1647.414307	1550.241699	0.136939
866.581360	1249.684692	1670.012573	1459.848633	0.301030
866.882874	1215.787231	1500.525513	1421.431519	0.141329
867.184143	1231.606079	1516.344360	1425.951172	0.165872
867.485535	1220.306885	1552.501587	1392.053833	0.286504
867.786743	1220.306885	1608.997314	1419.171753	0.291046
868.088013	1324.259033	1667.752808	1563.800659	0.156538
868.389160	1270.023071	1529.903320	1477.927246	0.096910
868.690308	1242.905151	1511.824707	1412.392212	0.200486
868.991333	1233.865845	1482.446899	1349.117065	0.333823
869.292358	1274.542725	1627.075928	1509.564819	0.176091
869.593323	1392.053833	1631.595581	1561.540894	0.150245
869.894287	1274.542725	1430.470825	1464.368286	-0.085430
870.195068	1324.259033	1586.398926	1509.564819	0.150644
870.495911	1274.542725	1627.075928	1545.722046	0.113943
870.796692	1283.582031	1561.540894	1534.422974	0.044582
871.097412	1290.361572	1518.604126	1486.966553	0.064802
871.398010	1256.464111	1525.383667	1421.431519	0.212224
871.698669	1283.582031	1538.942627	1477.927246	0.118580
871.999207	1251.944458	1545.722046	1484.706787	0.101106
872.299683	1294.881226	1502.785400	1444.029785	0.144244
872.600159	1331.038452	1541.202393	1489.226440	0.123385
872.900574	1270.023071	1514.084473	1484.706787	0.055700
873.200867	1215.787231	1484.706787	1434.990479	0.088775
873.501160	1224.826538	1473.407593	1471.147827	0.003966
873.801392	1251.944458	1518.604126	1475.667480	0.076247
874.101624	1270.023071	1532.163086	1516.344360	0.027031
874.401733	1285.841919	1514.084473	1486.966553	0.054931
874.701843	1224.826538	1584.139160	1405.612793	0.298307
875.001831	1227.086426	1599.958008	1518.604126	0.106894
875.301819	1274.542725	1550.241699	1471.147827	0.146840
875.601746	1306.180420	1579.619507	1550.241699	0.049362
875.901672	1306.180420	1595.438354	1525.383667	0.120438
876.201477	1163.811279	1477.927246	1403.352905	0.117709
876.501282	1288.101685	1471.147827	1453.069214	0.045162
876.800964	1238.385498	1543.462280	1475.667480	0.109144
877.100647	1197.708618	1516.344360	1543.462280	-0.035472
877.400208	1224.826538	1520.864014	1484.706787	0.056573
877.699829	1297.140991	1649.674194	1613.516968	0.046997
877.999329	1247.424805	1563.800659	1484.706787	0.124939
878.298767	1199.968506	1466.628174	1423.691406	0.076247
878.598206	1247.424805	1602.217773	1448.549561	0.246509
878.897583	1211.267578	1498.265747	1491.486206	0.010382
879.196838	1267.763306	1575.099854	1477.927246	0.165056
879.496155	1218.047119	1462.108521	1434.990479	0.051153
879.795288	1272.282959	1599.958008	1595.438354	0.006032
880.094482	1175.110352	1631.595581	1502.785400	0.143983
880.393555	1218.047119	1599.958008	1489.226440	0.148705
880.692627	1170.590698	1620.296387	1536.682739	0.089338
880.991577	1324.259033	1710.689453	1599.958008	0.146636
881.290588	1276.802612	1753.626221	1629.335693	0.131158
881.589355	1193.188965	1823.680908	1807.862061	0.011035
881.888306	1229.346191	2167.174561	2024.805542	0.071505
882.187012	1258.723999	2436.094238	2264.347168	0.068478
882.485840	1245.165039	2666.596680	2499.369385	0.054358
882.784424	1265.503418	3111.782715	2630.439453	0.131185
883.083069	1236.125732	3222.514160	2815.745117	0.099512
883.381592	1238.385498	3471.095215	3062.066406	0.087883
883.680176	1120.874512	3462.055908	2992.011719	0.097329
883.978638	1256.464111	3500.472900	3129.861328	0.078395
884.277039	1256.464111	3360.363770	2989.751953	0.084154
884.575378	1299.400879	3317.427002	2806.705811	0.126726
884.873779	1220.306885	3093.704102	2601.061523	0.132513
885.171997	1267.763306	2949.074951	2616.880371	0.095599
885.470276	1324.259033	3059.806641	2657.557373	0.114509
885.768311	1251.944458	2799.926514	2476.770996	0.101691
886.066528	1175.110352	2698.234131	2408.976318	0.091467
886.364502	1184.149658	2497.109619	2282.425781	0.077540
886.662537	1163.811279	2436.094238	2216.890869	0.082122
886.960510	1199.968506	2302.764404	2108.419189	0.084194
887.258362	1206.747925	2158.135254	1966.050049	0.097943
887.556213	1213.527466	1893.735596	1893.735596	-0.000000
887.854004	1258.723999	1846.279175	1760.405762	0.068620
888.151733	1258.723999	1871.137207	1789.783447	0.061901
888.449402	1306.180420	1871.137207	1710.689453	0.145087
888.747009	1258.723999	1812.381714	1690.351074	0.108133
889.044617	1227.086426	1694.870728	1631.595581	0.063117
889.342163	1195.448853	1561.540894	1593.178467	-0.035998
889.639648	1202.228271	1550.241699	1473.407593	0.108339
889.937012	1236.125732	1520.864014	1428.211060	0.170952
890.234436	1321.999146	1588.658813	1541.202393	0.085110
890.531738	1272.282959	1613.516968	1563.800659	0.068387
890.829041	1260.983765	1618.036621	1471.147827	0.230174
891.126221	1190.929199	1563.800659	1482.446899	0.106894
891.423401	1193.188965	1581.879272	1432.730713	0.210222
891.720459	1218.047119	1559.281006	1383.014526	0.315654
892.017578	1215.787231	1620.296387	1529.903320	0.109838
892.314514	1227.086426	1563.800659	1441.770020	0.195463
892.611511	1231.606079	1604.477661	1532.163086	0.093632
>>>>>End Processed Spectral Data<<<<<
