Jaz Data File
++++++++++++++++++++++++++++++++++++
Date: Mon Apr 25 12:35:31 2016
User: jaz
Dark Spectrum Present: No
Reference Spectrum Present: No
Processed Spectrum Present: No
Spectrometers: JAZA3098
Integration Time (usec): 911000 (JAZA3098)
Spectra Averaged: 1 (JAZA3098)
Boxcar Smoothing: 0 (JAZA3098)
Correct for Electrical Dark: No (JAZA3098)
Strobe/Lamp Enabled: Yes (JAZA3098)
Correct for Detector Non-linearity: No (JAZA3098)
Correct for Stray Light: No (JAZA3098)
Number of Pixels in Processed Spectrum: 2048
>>>>>Begin Processed Spectral Data<<<<<
W	S
190.313904	0.000000
190.695511	0.000000
191.077087	1333.298340
191.458633	1285.841919
191.840149	1211.267578
192.221634	1231.606079
192.603088	1315.219727
192.984528	1376.234985
193.365921	1349.117065
193.747284	1283.582031
194.128616	1355.896606
194.509918	1315.219727
194.891190	1303.920532
195.272446	1254.204346
195.653656	1496.005859
196.034836	1373.975220
196.416000	1364.935913
196.797104	1349.117065
197.178192	1387.534180
197.559265	1373.975220
197.940292	1276.802612
198.321304	1328.778687
198.702271	1421.431519
199.083221	1342.337646
199.464111	1331.038452
199.844986	1394.313599
200.225830	1340.077759
200.606659	1285.841919
200.987427	1466.628174
201.368195	1364.935913
201.748917	1358.156372
202.129608	1355.896606
202.510284	1317.479492
202.890915	1317.479492
203.271515	1405.612793
203.652100	1385.274292
204.032623	1358.156372
204.413147	1373.975220
204.793625	1416.911865
205.174088	1392.053833
205.554504	1360.416260
205.934906	1326.518799
206.315247	1376.234985
206.695587	1321.999146
207.075882	1432.730713
207.456146	1342.337646
207.836380	1389.793945
208.216599	1324.259033
208.596771	1279.062378
208.976913	1423.691406
209.357025	1471.147827
209.737106	1267.763306
210.117157	1324.259033
210.497177	1328.778687
210.877167	1245.165039
211.257126	1283.582031
211.637070	1403.352905
212.016968	1285.841919
212.396835	1337.817993
212.776672	1288.101685
213.156464	1238.385498
213.536255	1290.361572
213.916000	1398.833252
214.295700	1319.739380
214.675400	1412.392212
215.055038	1267.763306
215.434662	1353.636719
215.814240	1373.975220
216.193787	1340.077759
216.573334	1364.935913
216.952820	1303.920532
217.332275	1349.117065
217.711716	1444.029785
218.091125	1328.778687
218.470505	1507.305054
218.849854	1396.573486
219.229156	1401.093140
219.608444	1428.211060
219.987671	1441.770020
220.366898	1425.951172
220.746094	1444.029785
221.125244	1425.951172
221.504364	1392.053833
221.883469	1321.999146
222.262512	1342.337646
222.641556	1378.494873
223.020554	1337.817993
223.399521	1285.841919
223.778473	1412.392212
224.157364	1297.140991
224.536240	1312.959839
224.915085	1265.503418
225.293900	1392.053833
225.672684	1355.896606
226.051437	1333.298340
226.430161	1317.479492
226.808838	1346.857300
227.187500	1453.069214
227.566132	1337.817993
227.944717	1416.911865
228.323288	1367.195679
228.701813	1439.510132
229.080307	1453.069214
229.458786	1493.746094
229.837234	1430.470825
230.215637	1416.911865
230.594009	1362.676025
230.972351	1491.486206
231.350662	1496.005859
231.728958	1480.187134
232.107193	1491.486206
232.485413	1353.636719
232.863602	1405.612793
233.241760	1444.029785
233.619873	1403.352905
233.997986	1475.667480
234.376038	1403.352905
234.754074	1477.927246
235.132065	1511.824707
235.510025	1450.809326
235.887970	1423.691406
236.265869	1462.108521
236.643738	1514.084473
237.021576	1403.352905
237.399384	1486.966553
237.777161	1545.722046
238.154892	1468.887939
238.532623	1423.691406
238.910309	1509.564819
239.287949	1534.422974
239.665573	1525.383667
240.043167	1525.383667
240.420715	1566.060547
240.798233	1577.359619
241.175735	1493.746094
241.553207	1471.147827
241.930634	1543.462280
242.308014	1550.241699
242.685394	1602.217773
243.062729	1742.327148
243.440033	1663.233154
243.817307	1749.106567
244.194534	1798.822754
244.571747	1814.641602
244.948929	1868.877441
245.326065	1726.508301
245.703186	1708.429688
246.080261	1651.933960
246.457306	1656.453613
246.834320	1706.169800
247.211304	1785.263794
247.588257	1902.774902
247.965195	1988.648315
248.342087	2013.506348
248.718933	2063.222656
249.095764	1959.270508
249.472549	2112.938721
249.849319	2049.663574
250.226044	2029.325195
250.602737	1916.333862
250.979401	1796.562988
251.356033	1807.862061
251.732635	1767.185181
252.109207	1866.617554
252.485748	1773.964722
252.862244	1771.704834
253.238724	1823.680908
253.615158	1821.421021
253.991577	1832.720215
254.367950	1832.720215
254.744308	1943.451782
255.120621	1780.744141
255.496902	1708.429688
255.873154	1740.067261
256.249390	1776.224487
256.625549	1658.713501
257.001709	1844.019287
257.377838	1764.925415
257.753937	1792.043335
258.129974	1758.145874
258.506012	1884.696289
258.881989	1920.853516
259.257935	1997.687622
259.633911	2054.183350
260.009766	2153.615723
260.385651	2413.495850
260.761475	2323.102783
261.137299	2508.408691
261.513062	2571.683838
261.888763	2741.170898
262.264496	2594.281982
262.640137	2537.786377
263.015808	2293.725098
263.391388	2293.725098
263.766998	2323.102783
264.142517	2216.890869
264.518036	2124.238037
264.893524	2099.379883
265.268951	2112.938721
265.644379	1959.270508
266.019745	1979.609009
266.395111	1993.167969
266.770386	2101.639648
267.145691	1929.892822
267.520966	2164.914795
267.896149	2196.552490
268.271362	2305.024170
268.646515	2223.670410
269.021606	2277.906250
269.396729	2286.945557
269.771790	2266.607178
270.146790	2266.607178
270.521790	2399.937012
270.896759	2268.866943
271.271667	2347.960938
271.646545	2368.299316
272.021423	2406.716309
272.396271	2603.321289
272.771027	2596.541992
273.145813	2736.651123
273.520538	2741.170898
273.895233	2695.974365
274.269897	2605.581299
274.644501	2630.439453
275.019135	2725.352051
275.393677	2526.487305
275.768250	2571.683838
276.142700	2501.629150
276.517212	2594.281982
276.891632	2632.699219
277.266022	2680.155518
277.640381	2632.699219
278.014740	2720.832520
278.389038	2729.871826
278.763336	2610.100830
279.137543	2756.989746
279.511780	2639.478760
279.885925	2761.509277
280.260101	2677.895752
280.634186	2777.328125
281.008301	2842.863037
281.382294	2772.808594
281.756348	3021.389404
282.130280	2940.035645
282.504272	3107.262939
282.878143	3208.955322
283.252014	3249.632080
283.625854	3428.158447
283.999664	3312.907227
284.373444	3405.560303
284.747192	3373.922607
285.120941	3482.394287
285.494629	3355.843994
285.868256	3495.953369
286.241882	3575.047363
286.615448	3538.890137
286.988983	3701.597656
287.362518	3816.848877
287.736023	3868.824951
288.109467	3816.848877
288.482880	3868.824951
288.856262	3755.833496
289.229584	3649.621582
289.602936	3690.298584
289.976227	3593.125977
290.349457	3656.401123
290.722687	3735.495117
291.095886	3706.117188
291.469025	3952.438477
291.842133	4097.067383
292.215240	4164.862305
292.588287	4099.327148
292.961304	3986.335938
293.334320	4051.870850
293.707245	3923.060791
294.080170	3805.549805
294.453064	4067.689697
294.825897	4090.288086
295.198730	4198.759766
295.571533	4336.609375
295.944275	4356.947754
296.317017	4634.906250
296.689697	4689.142090
297.062317	4666.543945
297.434967	4813.432617
297.807526	4946.762695
298.180115	5064.273926
298.552612	5048.455078
298.925110	4998.738770
299.297546	4906.085938
299.669983	4962.581543
300.042358	4772.755859
300.414734	4594.229492
300.787048	4431.521973
301.159332	4521.915039
301.531616	4225.877441
301.903809	4377.286133
302.276031	4345.648438
302.648163	4323.050293
303.020294	4198.759766
303.392395	4336.609375
303.764435	4268.814453
304.136444	4255.255371
304.508453	4291.412598
304.880371	4230.397461
305.252319	4153.562988
305.624207	4049.611084
305.996033	4228.137695
306.367859	4144.523926
306.739655	3988.595703
307.111389	4106.106934
307.483124	4171.641602
307.854828	4280.113281
308.226471	4361.467285
308.598083	4252.995605
308.969666	4318.530762
309.341187	4359.207520
309.712738	4585.190430
310.084167	4668.803711
310.455658	4793.094238
310.827057	4725.299316
311.198456	4996.479004
311.569794	4985.179688
311.941132	4885.747070
312.312408	4951.282227
312.683655	4908.345703
313.054840	4892.526855
313.426056	4967.101074
313.797180	4863.148926
314.168304	4652.984863
314.539368	4673.323730
314.910431	4736.598633
315.281433	4937.723145
315.652435	4949.022461
316.023346	4856.369629
316.394287	4894.786621
316.765137	4894.786621
317.135986	4768.236328
317.506775	4569.371582
317.877594	4741.118164
318.248291	4598.749023
318.619019	4569.371582
318.989655	4596.489258
319.360321	4537.733887
319.730896	4589.709961
320.101501	4603.269043
320.472015	4693.662109
320.842529	4652.984863
321.213013	4662.024414
321.583466	4553.552734
321.953827	4542.253418
322.324188	4612.308105
322.694519	4614.567871
323.064819	4637.166504
323.435059	4813.432617
323.805328	4878.967773
324.175507	5100.431152
324.545685	5224.721680
324.915802	5351.271973
325.285919	5642.789551
325.655975	5477.822266
326.025970	5667.647461
326.395966	5459.743652
326.765930	5468.782715
327.135864	5547.876953
327.505737	5434.885254
327.875580	5434.885254
328.245422	5400.987793
328.615204	5154.666992
328.984955	5159.186523
329.354675	5057.494141
329.724365	5046.194824
330.093994	5116.249512
330.463623	5136.588379
330.833191	5134.328125
331.202759	5098.170898
331.572266	5297.036133
331.941711	5170.485352
332.311188	5353.531738
332.680573	5317.374512
333.049988	5452.963867
333.419312	5687.986328
333.788635	5697.025391
334.157867	5929.787598
334.527130	5834.875000
334.896332	6232.604492
335.265503	6054.078125
335.634613	6099.274902
336.003723	6038.259277
336.372772	5911.708984
336.741821	5832.615234
337.110809	5852.953613
337.479797	5819.056152
337.848724	5839.394531
338.217590	5773.859375
338.586487	5868.772461
338.955292	5875.551758
339.324036	5891.370605
339.692841	5999.842285
340.061523	5916.228516
340.430237	5798.717773
340.798859	5990.803223
341.167511	5886.851074
341.536072	5807.756836
341.904663	6026.960449
342.273102	6038.259277
342.641632	5900.409668
343.010040	5993.062988
343.378510	6031.479980
343.746826	5988.542969
344.115204	6345.595703
344.483490	6234.864258
344.851776	6393.052246
345.220001	6722.987305
345.588196	6854.057129
345.956329	6727.506836
346.324524	7091.338867
346.692596	6944.450195
347.060669	6928.631348
347.428680	6768.183594
347.796692	6580.618164
348.164612	6600.956543
348.532562	6600.956543
348.900421	6463.106934
349.268311	6343.335938
349.636108	6490.225098
350.003906	6402.091797
350.371643	6467.626465
350.739380	6539.940918
351.107025	6530.901855
351.474701	6594.176758
351.842285	6573.838379
352.209900	6713.947754
352.577393	6806.600586
352.944946	6478.925781
353.312378	6838.238281
353.679840	6761.404297
354.047211	7009.985352
354.414612	7156.874023
354.781891	7272.125488
355.149231	7513.926758
355.516449	7572.682129
355.883698	7755.728516
356.250854	7798.665039
356.618011	8126.340332
356.985168	8069.844238
357.352234	8521.809570
357.719269	8754.572266
358.086304	9012.192383
358.453278	9240.435547
358.820190	9360.206055
359.187103	9378.284180
359.554016	9206.538086
359.920837	9177.160156
360.287628	9190.718750
360.654388	9272.072266
361.021149	9500.315430
361.387848	10004.256836
361.754486	10578.252930
362.121124	11107.052734
362.487732	11640.372070
362.854279	11852.795898
363.220795	11782.741211
363.587311	11407.609375
363.953735	10795.196289
364.320160	10096.910156
364.686554	9737.597656
365.052887	9075.467773
365.419189	8860.784180
365.785492	8777.170898
366.151703	8478.873047
366.517944	8379.440430
366.884094	8546.667969
367.250214	8474.353516
367.616333	8316.166016
367.982361	8469.833984
368.348419	8289.047852
368.714386	8180.576172
369.080383	8250.630859
369.446289	8042.726563
369.812195	8164.757324
370.178009	7895.837891
370.543854	7983.971191
370.909607	7968.152344
371.275360	8081.143555
371.641052	8157.977539
372.006744	8205.433594
372.372375	8341.023438
372.737976	8528.589844
373.103546	8422.377930
373.469055	8363.622070
373.834595	8510.510742
374.199982	8338.763672
374.565460	8571.526367
374.930817	8544.408203
375.296204	8637.061523
375.661499	8856.264648
376.026825	9007.672852
376.391998	8978.294922
376.757263	9312.750000
377.122406	9552.291016
377.487549	9705.959961
377.852631	10083.350586
378.217743	10381.648438
378.582764	10180.523438
378.947754	10252.837891
379.312714	10078.831055
379.677673	9859.627930
380.042542	9577.149414
380.407379	9034.791016
380.772186	9211.057617
381.136993	9136.483398
381.501740	8978.294922
381.866486	9131.963867
382.231110	8817.847656
382.595764	8863.043945
382.960327	8865.303711
383.324951	9127.443359
383.689453	9141.002930
384.053986	9482.236328
384.418396	9473.197266
384.782867	9613.306641
385.147217	9735.336914
385.511597	9780.534180
385.875885	9696.919922
386.240204	9830.250000
386.604401	9965.839844
386.968628	10056.232422
387.332764	9943.241211
387.696930	10001.997070
388.061005	10435.883789
388.425140	10327.412109
388.789124	10293.514648
389.153168	10284.475586
389.517090	10230.239258
389.881042	10264.136719
390.244873	10142.106445
390.608734	10422.325195
390.972534	10465.261719
391.336304	10517.237305
391.700043	10853.952148
392.063751	11149.989258
392.427399	11326.255859
392.791077	11884.433594
393.154663	11638.112305
393.518219	11565.797852
393.881744	11477.664063
394.245209	11403.089844
394.608704	11294.618164
394.972107	11290.098633
395.335480	11443.766602
395.698792	11466.365234
396.062103	11520.601563
396.425385	11095.753906
396.788635	10847.172852
397.151825	10496.899414
397.514984	10363.569336
397.878113	10270.916992
398.241180	10157.924805
398.604248	10105.949219
398.967285	10300.293945
399.330231	10078.831055
399.693176	10006.516602
400.056091	10252.837891
400.418976	9893.525391
400.781830	10040.414063
401.144592	9943.241211
401.507355	10056.232422
401.870087	9977.138672
402.232758	10169.224609
402.595428	10246.058594
402.958038	10293.514648
403.320618	10293.514648
403.683167	10786.157227
404.045654	10655.086914
404.408142	10632.489258
404.770569	10926.266602
405.132996	11653.930664
405.495331	11538.679688
405.857666	11805.339844
406.219940	11755.623047
406.582214	11631.333008
406.944427	11563.538086
407.306549	11414.389648
407.668732	11317.216797
408.030792	11170.328125
408.392914	10926.266602
408.754883	10772.598633
409.116943	11052.816406
409.478882	11256.201172
409.840820	11353.374023
410.202667	11276.540039
410.564575	11583.875977
410.926331	11606.474609
411.288147	11333.035156
411.649872	11719.465820
412.011566	11342.075195
412.373199	11247.162109
412.734894	11116.091797
413.096436	11036.998047
413.458008	11220.043945
413.819519	11242.642578
414.181030	11192.925781
414.542450	11511.561523
414.903870	11513.821289
415.265198	11572.577148
415.626587	11552.238281
415.987854	11814.378906
416.349152	11977.085938
416.710327	12252.785156
417.071533	12198.549805
417.432678	12926.213867
417.793823	12725.088867
418.154877	13149.936523
418.515930	13470.832031
418.876923	14130.702148
419.237915	14589.447266
419.598816	15043.672852
419.959717	15497.897461
420.320526	16550.976563
420.681396	16853.794922
421.042145	17167.910156
421.402924	18250.367188
421.763580	18397.255859
422.124298	18991.591797
422.484894	18980.292969
422.845520	18833.404297
423.206055	18550.925781
423.566589	18501.208984
423.927063	18842.443359
424.287506	18550.925781
424.647949	18681.994141
425.008301	18706.853516
425.368652	18702.333984
425.728943	18489.910156
426.089203	18675.214844
426.449432	18227.769531
426.809601	18282.005859
427.169739	17843.599609
427.529846	18067.322266
427.889954	17565.640625
428.250000	17052.658203
428.609985	16657.189453
428.969940	16535.158203
429.329865	16069.633789
429.689789	15791.675781
430.049622	16076.414063
430.409454	15450.441406
430.769226	15287.733398
431.128937	14867.406250
431.488678	15375.867188
431.848328	15339.709961
432.207947	15283.213867
432.567566	15355.528320
432.927124	15649.306641
433.286621	15735.179688
433.646118	16358.892578
434.005554	16103.531250
434.364960	16501.261719
434.724335	16279.797852
435.083649	16322.734375
435.442932	16083.193359
435.802216	16426.687500
436.161407	15915.965820
436.520630	15970.202148
436.879761	15981.500977
437.238831	16322.734375
437.597931	16575.835938
437.956940	16227.822266
438.315948	16390.529297
438.674896	16388.269531
439.033844	16372.451172
439.392700	16752.101563
439.751556	16496.742188
440.110352	17463.947266
440.469116	17554.341797
440.827850	17845.859375
441.186554	18672.955078
441.545197	18946.394531
441.903809	18858.261719
442.262390	18523.806641
442.620941	18367.878906
442.979462	18550.925781
443.337921	18225.509766
443.696350	17800.662109
444.054718	17936.251953
444.413086	18139.636719
444.771423	18329.460938
445.129669	17721.568359
445.487915	17106.894531
445.846130	17669.591797
446.204285	17717.048828
446.562408	18336.242188
446.920532	19068.425781
447.278595	19545.250000
447.636566	20200.599609
447.994568	20742.957031
448.352509	20835.611328
448.710419	20279.693359
449.068237	20137.324219
449.426056	20419.802734
449.783844	19936.199219
450.141602	19199.496094
450.499329	19190.457031
450.856964	18691.035156
451.214630	18467.310547
451.572235	18254.886719
451.929779	18476.349609
452.287323	18193.873047
452.644806	18205.171875
453.002258	18272.966797
453.359650	17963.369141
453.717010	17954.330078
454.074341	17665.072266
454.431641	17698.970703
454.788910	17021.021484
455.146118	16917.070313
455.503296	16666.228516
455.860443	17106.894531
456.217560	16810.857422
456.574615	16553.236328
456.931641	16702.386719
457.288635	16471.882813
457.645599	16921.589844
458.002502	16858.314453
458.359375	17100.115234
458.716217	17721.568359
459.073029	18571.263672
459.429779	19850.326172
459.786499	20677.421875
460.143219	21775.699219
460.499847	21802.816406
460.856476	22659.291016
461.213043	22516.921875
461.569550	22837.818359
461.926056	22311.277344
462.282501	21357.630859
462.638916	20281.953125
462.995331	19689.878906
463.351654	19457.115234
463.707947	19052.607422
464.064209	18704.593750
464.420441	18659.396484
464.776642	18202.912109
465.132782	18139.636719
465.488892	17859.417969
465.844971	18284.265625
466.201019	17866.197266
466.557007	18643.578125
466.912964	18675.214844
467.268890	18860.521484
467.624756	19208.535156
467.980591	19140.740234
468.336426	19364.462891
468.692169	18907.978516
469.047913	18580.302734
469.403625	18239.068359
469.759247	18121.558594
470.114838	18390.476563
470.470459	17811.960938
470.825958	17778.064453
471.181488	17940.771484
471.536926	17771.285156
471.892365	18019.865234
472.247742	18051.503906
472.603058	18121.558594
472.958374	18526.066406
473.313629	18722.671875
473.668884	18991.591797
474.024048	19097.802734
474.379211	19041.306641
474.734314	18946.394531
475.089417	18815.324219
475.444458	18770.128906
475.799438	19011.929688
476.154388	19102.322266
476.509308	19414.179688
476.864197	19714.736328
477.219025	20116.986328
477.573822	20718.099609
477.928619	20883.066406
478.283325	21124.869141
478.638000	21897.730469
478.992676	21805.076172
479.347260	22173.427734
479.701843	22444.607422
480.056366	22684.150391
480.410858	23294.302734
480.765320	23518.025391
481.119751	24372.240234
481.474091	25484.076172
481.828430	26688.564453
482.182709	27811.699219
482.536987	29981.132813
482.891174	33167.488281
483.245361	37608.050781
483.599518	42986.441406
483.953644	48339.972656
484.307678	52172.640625
484.661713	54066.375000
485.015686	54667.488281
485.369659	54107.050781
485.723572	52369.246094
486.077423	49390.792969
486.431274	46855.265625
486.785034	45788.628906
487.138794	45036.105469
487.492523	45960.375000
487.846191	46532.109375
488.199829	47413.441406
488.553436	47539.992188
488.906982	46902.722656
489.260529	45802.187500
489.613983	43673.429688
489.967438	41461.058594
490.320831	39641.894531
490.674194	38923.269531
491.027527	39047.562500
491.380798	39795.562500
491.734070	41456.539063
492.087250	42215.839844
492.440430	42319.792969
492.793549	42055.390625
493.146637	40746.953125
493.499695	38837.398438
493.852692	35935.777344
494.205658	33377.652344
494.558594	31816.113281
494.911499	29633.119141
495.264374	28455.750000
495.617188	27771.021484
495.969940	27454.646484
496.322693	26876.128906
496.675385	27441.085938
497.028015	27678.369141
497.380676	27296.457031
497.733246	27691.927734
498.085785	28378.916016
498.438263	27533.740234
498.790710	27260.300781
499.143158	26747.320313
499.495544	26229.818359
499.847870	25818.531250
500.200165	25881.804688
500.552429	24785.789063
500.904663	24623.082031
501.256866	24611.783203
501.609009	23673.953125
501.961090	23565.482422
502.313171	23601.638672
502.665253	23551.923828
503.017181	23330.460938
503.369110	23357.578125
503.721069	23484.128906
504.072937	23420.853516
504.424774	23362.097656
504.776520	23339.500000
505.128265	23655.875000
505.480042	23678.474609
505.831665	23572.261719
506.183289	23133.855469
506.534882	23240.066406
506.886505	23226.507813
507.237946	23353.058594
507.589417	23339.500000
507.940857	23520.285156
508.292297	23208.429688
508.643616	23710.111328
508.994904	23689.773438
509.346191	24424.216797
509.697479	24311.224609
510.048645	24238.910156
510.399780	24501.050781
510.750916	25000.472656
511.102051	25138.322266
511.453033	25099.906250
511.804016	25359.785156
512.154968	25556.390625
512.505920	25865.986328
512.856750	25533.792969
513.207581	25954.121094
513.558411	25427.580078
513.909180	25762.035156
514.259888	25077.306641
514.610535	25115.724609
514.961182	24844.544922
515.311829	24620.822266
515.662354	24887.482422
516.012878	25054.708984
516.363281	25111.205078
516.713745	25343.966797
517.064209	25752.996094
517.414490	26261.457031
517.764832	26923.585938
518.115173	27578.935547
518.465393	28754.046875
518.815552	29305.445313
519.165710	30096.384766
519.515869	29956.275391
519.865967	30424.058594
520.216003	29700.914063
520.565918	29011.666016
520.915955	28916.753906
521.265869	27902.091797
521.615723	27691.927734
521.965576	27691.927734
522.315369	26799.294922
522.665161	26934.884766
523.014832	26939.404297
523.364502	27061.435547
523.714172	27061.435547
524.063782	27569.896484
524.413330	27978.925781
524.762817	29120.138672
525.112366	29944.976563
525.461792	31016.134766
525.811157	32155.087891
526.160522	33538.101563
526.509827	34889.480469
526.859131	35775.332031
527.208313	37397.886719
527.557495	39314.222656
527.906738	41734.496094
528.255859	45049.664063
528.604919	49017.921875
528.953918	51569.265625
529.302917	52701.441406
529.651917	52974.878906
530.000793	52154.562500
530.349609	51167.015625
530.698547	48758.039063
531.047302	44984.128906
531.396057	42376.289063
531.744751	40500.628906
532.093445	39135.695313
532.442139	38893.894531
532.790710	38733.445313
533.139160	40383.121094
533.487732	40737.914063
533.836243	41447.500000
534.184631	41836.187500
534.533020	41180.839844
534.881348	39393.316406
535.229736	38412.550781
535.577942	36695.082031
535.926086	35716.574219
536.274353	35373.082031
536.622498	35140.320313
536.970642	35373.082031
537.318665	34545.984375
537.666687	34326.781250
538.014709	33877.074219
538.362610	32584.455078
538.710510	31411.603516
539.058411	30855.685547
539.406250	30692.978516
539.753967	30704.277344
540.101746	30934.779297
540.449463	32701.964844
540.797119	34749.371094
541.144714	36774.175781
541.492249	38719.886719
541.839844	40624.921875
542.187378	41983.078125
542.534790	42288.152344
542.882202	41574.046875
543.229553	40035.105469
543.576965	38606.894531
543.924194	36584.347656
544.271423	35341.445313
544.618652	34295.144531
544.965881	32347.171875
545.312988	31135.904297
545.660034	30455.697266
546.007141	29436.513672
546.354126	28853.478516
546.701111	28846.699219
547.048035	28476.087891
547.394836	28548.402344
547.741699	27929.208984
548.088562	27341.654297
548.435303	27147.308594
548.781921	26087.449219
549.128662	25025.330078
549.475342	24417.437500
549.821899	23386.955078
550.168457	22925.951172
550.515015	22385.851563
550.861511	22144.050781
551.207886	21538.416016
551.554260	21269.498047
551.900635	21253.677734
552.247009	21436.724609
552.593262	21475.142578
552.939392	21475.142578
553.285645	21522.597656
553.631775	21712.423828
553.977905	21359.890625
554.323975	21161.025391
554.669983	20914.705078
555.015991	20840.130859
555.361877	20435.621094
555.707825	19976.876953
556.053711	20037.890625
556.399536	19646.941406
556.745239	19378.021484
557.091003	19244.691406
557.436707	19050.347656
557.782410	19384.800781
558.127991	18993.851563
558.473511	19048.087891
558.819092	18831.142578
559.164612	18675.214844
559.510010	18720.412109
559.855408	18559.964844
560.200806	18512.507813
560.546143	18598.380859
560.891357	18462.791016
561.236633	18892.158203
561.581848	18654.876953
561.927002	18736.230469
562.272095	18819.843750
562.617126	18715.892578
562.962219	18553.185547
563.307251	18745.269531
563.652161	18620.980469
563.997009	18670.695313
564.341919	18702.333984
564.686768	18571.263672
565.031555	18776.908203
565.376282	18996.111328
565.721008	19389.320313
566.065674	19787.050781
566.410278	20024.332031
566.754822	20426.582031
567.099365	20370.085938
567.443909	20577.990234
567.788330	20300.031250
568.132751	20268.394531
568.477112	19805.128906
568.821533	19425.478516
569.165771	19660.500000
569.510010	19389.320313
569.854248	19452.595703
570.198364	19314.746094
570.542542	19606.263672
570.886536	19314.746094
571.230591	19764.453125
571.574646	19974.617188
571.918518	19897.781250
572.262451	20268.394531
572.606323	20309.070313
572.950195	20584.769531
573.293945	20842.390625
573.637695	20550.873047
573.981384	20428.841797
574.325134	19872.923828
574.668701	19915.861328
575.012268	20304.550781
575.355774	19628.863281
575.699341	19870.664063
576.042725	19642.421875
576.386169	19488.753906
576.729553	19368.982422
577.072876	19226.613281
577.416138	18465.050781
577.759399	18101.218750
578.102600	17902.353516
578.445801	17669.591797
578.788940	17165.650391
579.131897	16935.148438
579.474976	16937.408203
579.817993	16437.986328
580.160950	16162.287109
580.503845	15983.760742
580.846680	15891.107422
581.189514	15543.094727
581.532349	15791.675781
581.875061	15567.952148
582.217773	15488.858398
582.560425	15572.471680
582.903076	15452.701172
583.245667	15219.939453
583.588135	15242.537109
583.930664	15070.790039
584.273071	14813.169922
584.615479	14871.925781
584.957825	14903.563477
585.300232	14783.791992
585.642517	14788.311523
585.984680	14537.470703
586.326843	14697.918945
586.669067	14648.202148
587.011230	14503.573242
587.353271	14413.180664
587.695251	14661.761719
588.037231	14677.580078
588.379211	14813.169922
588.721069	14874.185547
589.062927	14677.580078
589.404785	15016.554688
589.746582	15066.270508
590.088257	15149.884766
590.429932	15326.150391
590.771606	15091.128906
591.113220	14905.823242
591.454773	15054.971680
591.796265	14695.659180
592.137817	14914.862305
592.479248	14779.272461
592.820618	14883.224609
593.161926	14521.652344
593.503296	14618.825195
593.844604	14404.141602
594.185791	14740.855469
594.526917	14745.375000
594.868103	14960.058594
595.209229	15120.506836
595.550232	15231.238281
595.891235	15305.812500
596.232178	15570.211914
596.573181	15979.241211
596.914063	16207.483398
597.254883	16193.924805
597.595703	16471.882813
597.936462	16763.400391
598.277161	16709.166016
598.617798	16225.562500
598.958435	15703.541992
599.299072	15154.404297
599.639587	14973.618164
599.980103	14937.460938
600.320557	14790.571289
600.661072	13963.474609
601.001404	13972.513672
601.341675	13997.372070
601.681946	13807.546875
602.022278	13934.096680
602.362427	13845.963867
602.702576	14273.071289
603.042725	14234.654297
603.382813	14614.305664
603.722839	15102.427734
604.062805	15430.102539
604.402771	15936.304688
604.742737	16349.852539
605.082581	16277.538086
605.422363	16720.464844
605.762146	16688.826172
606.101929	16395.048828
606.441589	16083.193359
606.781189	15622.188477
607.120850	15398.465820
607.460388	14955.539063
607.799927	14546.510742
608.139404	14325.046875
608.478821	14492.274414
608.818298	14288.889648
609.157593	14765.713867
609.496887	14880.964844
609.836182	15032.373047
610.175415	14996.215820
610.514526	15034.632813
610.853699	14905.823242
611.192688	14715.997070
611.531799	14747.634766
611.870850	14209.795898
612.209778	14024.490234
612.548645	13676.476563
612.887573	13549.926758
613.226440	13163.496094
613.565186	12928.473633
613.903931	12786.104492
614.242676	12747.687500
614.581360	12621.137695
614.919983	12383.855469
615.258484	12151.092773
615.597046	12347.698242
615.935547	12153.352539
616.273987	12144.313477
616.612366	12194.030273
616.950806	12169.171875
617.289124	12205.329102
617.627380	12123.975586
617.965515	12293.461914
618.303772	11936.409180
618.641968	12252.785156
618.980042	12128.495117
619.318054	12024.542969
619.656128	11888.953125
619.994080	11911.551758
620.331970	11956.748047
620.669861	11900.251953
621.007751	11812.119141
621.345581	11839.237305
621.683289	11651.670898
622.020996	11755.623047
622.358704	11597.435547
622.696350	11337.554688
623.033875	11536.419922
623.371460	11604.214844
623.708984	11692.347656
624.046448	11744.324219
624.383789	11513.821289
624.721191	11448.287109
625.058533	11513.821289
625.395813	11534.160156
625.733032	11669.750000
626.070190	11897.992188
626.407410	12250.525391
626.744507	12273.124023
627.081543	12198.549805
627.418518	12533.003906
627.755554	12600.798828
628.092529	12621.137695
628.429382	12334.138672
628.766174	12440.350586
629.103027	12435.831055
629.439819	11956.748047
629.776489	11925.110352
630.113159	11714.946289
630.449829	11448.287109
630.786377	11409.869141
631.122925	11500.262695
631.459412	11455.066406
631.795898	10948.865234
632.132324	10878.810547
632.468689	11138.690430
632.804993	10804.235352
633.141296	10910.447266
633.477539	10901.408203
633.813721	10883.330078
634.149841	10763.558594
634.485962	10713.842773
634.822083	10946.604492
635.158020	10783.897461
635.494019	10691.244141
635.829956	10537.576172
636.165894	10395.207031
636.501709	10368.088867
636.837463	10291.254883
637.173279	10137.586914
637.509033	10187.302734
637.844666	10051.712891
638.180237	10011.036133
638.515869	9938.721680
638.851440	9703.700195
639.186890	9550.031250
639.522339	9629.125000
639.857727	9491.276367
640.193176	9253.994141
640.528442	9186.199219
640.863708	9188.458984
641.198914	8985.074219
641.534180	9091.286133
641.869263	9186.199219
642.204346	8917.279297
642.539368	9222.356445
642.874390	8964.736328
643.209412	8987.333984
643.544312	8876.602539
643.879150	8734.233398
644.213989	8928.579102
644.548828	8756.832031
644.883545	8865.303711
645.218262	8587.344727
645.552856	8609.943359
645.887573	8763.611328
646.222107	8777.170898
646.556580	8618.982422
646.891113	8849.485352
647.225586	8842.705078
647.559937	8894.681641
647.894226	8621.242188
648.228577	8957.957031
648.562927	8792.989258
648.897095	8883.382813
649.231262	8670.958984
649.565430	8750.052734
649.899475	8639.321289
650.233521	8628.021484
650.567505	8731.973633
650.901428	8682.257813
651.235413	8630.281250
651.569275	8605.423828
651.903015	8876.602539
652.236816	8623.501953
652.570618	8542.148438
652.904297	8639.321289
653.237915	8485.652344
653.571533	8521.809570
653.905090	8641.581055
654.238586	8551.187500
654.572021	8261.929688
654.905457	8307.125977
655.238892	8264.189453
655.572144	8241.590820
655.905457	8169.276855
656.238708	8153.458008
656.571960	8087.922852
656.905090	8203.173828
657.238159	8187.355469
657.571289	8275.488281
657.904358	8420.118164
658.237305	8463.054688
658.570190	8350.063477
658.903076	8499.211914
659.236023	8872.083008
659.568787	8872.083008
659.901428	9190.718750
660.234192	9070.948242
660.566895	9014.452148
660.899536	9238.174805
661.232056	8912.759766
661.564636	8991.854492
661.897156	8890.162109
662.229553	8675.478516
662.561951	8402.039063
662.894287	8239.331055
663.226685	8060.805176
663.558899	8011.088867
663.891052	7873.239258
664.223328	7931.995117
664.555420	7794.145508
664.887512	7715.051270
665.219543	7570.422363
665.551575	7669.854980
665.883545	7446.131836
666.215454	7385.116699
666.547302	7321.841309
666.879150	7665.335449
667.210938	7660.815430
667.542664	7459.690918
667.874268	7294.723633
668.205994	7475.509766
668.537537	7577.202148
668.869080	7559.123535
669.200562	7283.424316
669.532043	7405.455078
669.863525	7428.053223
670.194824	7513.926758
670.526184	7344.439941
670.857483	7382.856934
671.188660	7443.872070
671.519897	7229.188477
671.851013	7224.668945
672.182129	7188.511719
672.513184	7016.764648
672.844238	7330.880859
673.175171	7233.708008
673.506104	7168.173340
673.836975	7086.819336
674.167786	7043.882813
674.498596	6901.513672
674.829407	6917.332520
675.160034	7048.402344
675.490723	6964.788574
675.821289	6948.969727
676.151917	6684.570313
676.482422	6876.655273
676.812927	6899.253906
677.143311	6702.648926
677.473694	6817.899902
677.804016	6813.380371
678.134338	6921.852051
678.464539	6921.852051
678.794800	6967.048340
679.124878	7066.480957
679.455078	7132.016113
679.785095	7034.843262
680.115173	7306.022461
680.445129	7152.354492
680.775024	7265.345703
681.104919	7254.046875
681.434814	7376.077148
681.764526	7385.116699
682.094360	7333.140625
682.424011	7500.367676
682.753723	7500.367676
683.083313	7061.961426
683.412903	7222.409180
683.742432	6985.126953
684.071899	7104.897949
684.401306	7080.040039
684.730713	6878.915039
685.060059	6876.655273
685.389404	6671.011230
685.718628	6659.711914
686.047852	6713.947754
686.376953	6756.884766
686.706116	6546.720703
687.035156	6567.059082
687.364197	6487.964844
687.693176	6573.838379
688.022156	6664.231445
688.351013	6675.530762
688.679871	6682.310059
689.008606	6671.011230
689.337402	6476.666016
689.666138	6675.530762
689.994751	6345.595703
690.323364	6309.438477
690.651917	6293.620117
690.980469	6271.021484
691.308960	6130.912109
691.637451	6142.211426
691.965759	6022.440430
692.294128	6038.259277
692.622437	5807.756836
692.950684	5913.968750
693.278870	5848.434082
693.607117	5769.339844
693.935120	5712.844238
694.263245	5669.907715
694.591248	5746.741699
694.919250	5701.544922
695.247192	5636.010254
695.575073	5645.049316
695.902893	5733.182617
696.230774	5647.309082
696.558411	5667.647461
696.886169	5721.883301
697.213806	5719.623535
697.541443	5875.551758
697.869019	5773.859375
698.196533	5995.322754
698.524048	6320.737793
698.851501	6537.681152
699.178772	6417.910645
699.506226	6682.310059
699.833435	6924.111816
700.160767	6675.530762
700.487915	6989.646973
700.815063	6542.201172
701.142151	6451.807617
701.469238	6472.146484
701.796265	6178.368652
702.123230	6171.589355
702.450134	5800.977539
702.777039	5947.866211
703.103882	5547.876953
703.430664	5434.885254
703.757385	5283.477051
704.084106	5233.760742
704.410767	5391.948730
704.737366	5125.289063
705.063904	5292.516113
705.390442	5118.509766
705.716919	4869.928711
706.043396	5046.194824
706.369690	5075.572754
706.696106	5025.856445
707.022278	5025.856445
707.348633	4937.723145
707.674805	5000.998535
708.000916	4944.502930
708.327026	5048.455078
708.653076	5037.155762
708.979065	4912.865234
709.305054	4949.022461
709.630920	5127.548828
709.956787	5055.234375
710.282593	5093.651367
710.608459	5145.627441
710.934082	5211.162598
711.259827	5265.398438
711.585449	5163.706055
711.911072	5297.036133
712.236572	5285.736816
712.562073	5403.248047
712.887512	5419.066406
713.213013	5294.775879
713.538330	5378.389648
713.863647	5172.745605
714.188904	5175.005371
714.514099	5208.902832
714.839294	5141.107910
715.164490	5136.588379
715.489502	4969.360840
715.814575	5012.297852
716.139526	5082.352539
716.464539	4890.267090
716.789368	4944.502930
717.114258	5075.572754
717.439026	4928.684082
717.763794	4892.526855
718.088440	4881.227539
718.413208	4666.543945
718.737793	4643.945801
719.062378	4698.181641
719.386841	4702.701172
719.711304	4598.749023
720.035767	4506.096191
720.360168	4506.096191
720.684570	4467.679199
721.008789	4422.482422
721.333069	4519.655273
721.657227	4352.428223
721.981445	4282.373535
722.305481	4273.333984
722.629578	4212.318848
722.953552	4212.318848
723.277588	4286.893066
723.601440	4146.783691
723.925354	4286.893066
724.249146	4198.759766
724.572937	4255.255371
724.896667	4142.264160
725.220398	4228.137695
725.543945	4289.152832
725.867615	4234.916992
726.191101	4194.240234
726.514648	4237.176758
726.838074	4275.593750
727.161499	4225.877441
727.484863	4325.310059
727.808228	4433.781738
728.131470	4323.050293
728.454712	4472.198730
728.777832	4408.923828
729.101013	4293.672363
729.424011	4390.845215
729.747070	4415.703125
730.070068	4399.884277
730.393005	4420.222656
730.715881	4341.128906
731.038757	4422.482422
731.361572	4388.585449
731.684326	4406.664063
732.007019	4393.104980
732.329712	4483.498047
732.652283	4476.718262
732.974854	4490.277344
733.297363	4472.198730
733.619873	4488.017578
733.942261	4352.428223
734.264648	4347.908203
734.586975	4341.128906
734.909302	4309.491211
735.231506	4318.530762
735.553711	4237.176758
735.875854	4221.357910
736.197937	4108.366699
736.519958	3995.375244
736.841980	4049.611084
737.163940	3981.816162
737.485840	3999.894775
737.807678	3961.477783
738.129517	3925.320557
738.451233	3995.375244
738.773010	3893.682861
739.094666	4063.170166
739.416260	4067.689697
739.737854	4121.925781
740.059448	3988.595703
740.380859	4045.091309
740.702332	4027.012695
741.023682	3984.076172
741.345032	3947.918945
741.666321	4027.012695
741.987549	4076.729004
742.308777	3911.761719
742.629944	3848.486328
742.950989	3871.084717
743.272095	3751.313721
743.593140	3651.881348
743.914063	3627.023438
744.234985	3599.905273
744.555847	3660.920654
744.876648	3681.259277
745.197449	3579.566895
745.518188	3588.606201
745.838867	3683.519043
746.159485	3559.228516
746.480042	3486.914063
746.800537	3511.772217
747.121094	3509.512207
747.441528	3466.575439
747.761902	3495.953369
748.082275	3500.472900
748.402588	3561.488281
748.722839	3405.560303
749.043030	3477.874756
749.363159	3516.291748
749.683289	3439.457520
750.003357	3455.276367
750.323303	3507.252441
750.643311	3561.488281
750.963257	3611.204590
751.283142	3493.693604
751.602905	3396.520996
751.922729	3559.228516
752.242432	3464.315674
752.562134	3443.977295
752.881714	3416.859375
753.201355	3267.710693
753.520874	3297.088379
753.840393	3380.702148
754.159851	3367.143066
754.479248	3380.702148
754.798523	3319.686768
755.117859	3306.127686
755.437134	3326.466309
755.756348	3407.820068
756.075500	3337.765381
756.394653	3281.269775
756.713623	3387.481689
757.032654	3279.009766
757.351624	3272.230469
757.670532	3328.726074
757.989441	3213.474854
758.308289	3333.245850
758.627014	3292.568848
758.945801	3274.490234
759.264404	3333.245850
759.583130	3326.466309
759.901611	3371.662842
760.220215	3349.064453
760.538635	3398.780762
760.857117	3376.182373
761.175537	3448.496826
761.493896	3425.898682
761.812134	3441.717529
762.130432	3321.946533
762.448608	3380.702148
762.766785	3475.614990
763.084900	3468.835449
763.402954	3638.322510
763.720947	3810.069336
764.038940	3857.525635
764.356750	4083.508545
764.674683	4110.626465
764.992493	4144.523926
765.310303	4300.452148
765.627930	4216.838379
765.945679	4162.602539
766.263306	4022.493164
766.580872	3920.801025
766.898376	3717.416504
767.215881	3672.219971
767.533325	3570.527588
767.850708	3387.481689
768.168030	3312.907227
768.485352	3256.411621
768.802551	3186.356934
769.119751	3245.112549
769.436890	3068.845947
769.753967	3080.145020
770.071045	3118.562012
770.388062	3188.616699
770.704956	3114.042480
771.021912	3159.239014
771.338684	3003.310791
771.655579	2992.011719
771.972351	2910.657959
772.289063	2888.059570
772.605713	2971.673340
772.922302	2930.996338
773.238831	2942.295654
773.555420	2996.531494
773.871826	2928.736572
774.188293	2998.791260
774.504639	2824.784424
774.820984	2824.784424
775.137207	2836.083740
775.453552	2756.989746
775.769592	2836.083740
776.085815	2849.642578
776.401855	2806.705811
776.717896	2815.745117
777.033875	2827.044434
777.349854	2723.092285
777.665710	2777.328125
777.981567	2795.406738
778.297363	2718.572510
778.613098	2747.950439
778.928772	2745.690430
779.244385	2763.769287
779.559998	2777.328125
779.875488	2718.572510
780.191040	2736.651123
780.506470	2793.146973
780.821899	2813.485352
781.137207	2820.264893
781.452576	2607.841064
781.767822	2806.705811
782.083069	2671.116211
782.398193	2686.935059
782.713379	2621.400146
783.028381	2759.249512
783.343384	2619.140137
783.658386	2612.360840
783.973328	2601.061523
784.288086	2747.950439
784.602966	2580.723145
784.917725	2745.690430
785.232483	2551.345459
785.547119	2689.194824
785.861755	2540.046143
786.176270	2519.707764
786.490845	2555.864990
786.805298	2494.849609
787.119751	2562.644531
787.434143	2524.227539
787.748474	2630.439453
788.062744	2607.841064
788.377014	2562.644531
788.691162	2569.424072
789.005310	2673.375977
789.319397	2646.258057
789.633423	2793.146973
789.947449	2768.288818
790.261414	2619.140137
790.575256	2607.841064
790.889160	2643.998291
791.202881	2531.006836
791.516663	2494.849609
791.830322	2521.967529
792.144043	2494.849609
792.457581	2598.801758
792.771118	2404.456543
793.084656	2578.463379
793.398071	2485.810303
793.711487	2433.834229
794.024841	2427.054932
794.338135	2442.873535
794.651428	2408.976318
794.964600	2499.369385
795.277771	2397.677002
795.590881	2377.338623
795.903931	2553.605225
796.216980	2406.716309
796.529907	2558.124756
796.842834	2458.692383
797.155701	2418.015625
797.468506	2582.982910
797.781250	2481.290771
798.093994	2551.345459
798.406677	2472.251465
798.719238	2460.952393
799.031921	2436.094238
799.344360	2386.377930
799.656860	2402.196777
799.969299	2363.779785
800.281677	2390.897705
800.593933	2476.770996
800.906250	2327.622559
801.218445	2248.528564
801.530640	2381.858398
801.842712	2381.858398
802.154846	2411.236084
802.466797	2354.740479
802.778870	2352.480469
803.090759	2352.480469
803.402649	2173.954102
803.714478	2239.489258
804.026245	2280.166016
804.337952	2262.087402
804.649658	2262.087402
804.961243	2234.969482
805.272888	2368.299316
805.584412	2266.607178
805.895874	2268.866943
806.207336	2316.323242
806.518677	2381.858398
806.830017	2257.567871
807.141357	2280.166016
807.452576	2298.244629
807.763733	2271.126709
808.074890	2300.504395
808.385925	2334.401855
808.697021	2316.323242
809.007935	2286.945557
809.318909	2402.196777
809.629822	2178.473877
809.940674	2194.292725
810.251404	2180.733643
810.562195	2332.142090
810.872864	2155.875488
811.183533	2194.292725
811.494080	2232.709717
811.804626	2088.080811
812.115112	2121.978027
812.425598	2065.482422
812.735962	2124.238037
813.046326	2146.836182
813.356628	2282.425781
813.666870	2137.796875
813.976990	2117.458496
814.287170	2018.026001
814.597290	2013.506348
814.907349	2040.624390
815.217346	2201.072021
815.527283	2103.899414
815.837158	2022.545654
816.147034	2092.600342
816.456787	2182.993408
816.766541	2135.537109
817.076233	2115.198730
817.385925	2142.316650
817.695496	2262.087402
818.005066	2101.639648
818.314514	2225.930176
818.623962	2121.978027
818.933350	2151.355957
819.242737	2151.355957
819.552002	2201.072021
819.861328	2119.718262
820.170471	2178.473877
820.479675	2314.063477
820.788696	2386.377930
821.097839	2408.976318
821.406738	2675.635986
821.715698	2668.856445
822.024597	2883.540039
822.333435	3251.891846
822.642273	4158.083008
822.950989	5019.077148
823.259705	5823.575684
823.568359	6415.650391
823.876953	6831.458984
824.185486	6754.624512
824.494019	6815.640137
824.802429	6332.037109
825.110840	5547.876953
825.419189	5217.941895
825.727478	4797.614258
826.035767	4456.379883
826.343933	4221.357910
826.652100	3841.707031
826.960144	3651.881348
827.268250	3654.141357
827.576233	3823.628418
827.884155	3805.549805
828.192017	3880.124023
828.499878	4008.934082
828.807678	3938.879639
829.115479	3839.447021
829.423096	3708.377197
829.730835	3475.614990
830.038330	3330.985840
830.345947	3086.924561
830.653442	2897.099121
830.960876	2790.887207
831.268250	2761.509277
831.575623	2585.242676
831.882874	2447.393311
832.190125	2259.827637
832.497314	2273.386475
832.804504	2302.764404
833.111572	2180.733643
833.418640	2198.812256
833.725586	2273.386475
834.032532	2451.912842
834.339417	2637.218750
834.646301	2664.336670
834.953003	2897.099121
835.259827	2906.138428
835.566467	2883.540039
835.873108	2946.815186
836.179688	2664.336670
836.486267	2734.391357
836.792664	2589.762451
837.099121	2585.242676
837.405518	2494.849609
837.711792	2431.574463
838.018127	2173.954102
838.324341	2268.866943
838.630554	2176.214111
838.936646	2029.325195
839.242737	2124.238037
839.548767	2099.379883
839.854797	2056.443115
840.160645	1977.349121
840.466553	1918.593628
840.772400	1993.167969
841.078186	2022.545654
841.383850	1990.908081
841.689575	2058.702881
841.995178	2033.844849
842.300781	2051.923584
842.606262	2042.884155
842.911743	1979.609009
843.217163	1916.333862
843.522583	1841.759521
843.827881	1884.696289
844.133179	1889.215942
844.438354	1798.822754
844.743530	1737.807495
845.048645	1846.279175
845.353760	1857.578247
845.658752	1848.538940
845.963745	1762.665527
846.268555	1683.571533
846.573486	1753.626221
846.878296	1853.058594
847.183044	1683.571533
847.487732	1710.689453
847.792419	1715.209106
848.097046	1726.508301
848.401611	1733.287720
848.706055	1728.768066
849.010559	1685.831421
849.314941	1703.910034
849.619324	1651.933960
849.923584	1572.839966
850.227844	1627.075928
850.532043	1599.958008
850.836243	1595.438354
851.140320	1559.281006
851.444397	1636.115234
851.748352	1708.429688
852.052307	1710.689453
852.356140	1584.139160
852.660095	1672.272461
852.963806	1649.674194
853.267578	1862.097900
853.571228	1681.311768
853.874939	1651.933960
854.178467	1672.272461
854.482056	1557.021240
854.785461	1660.973267
855.088989	1618.036621
855.392273	1529.903320
855.695679	1543.462280
855.998901	1783.004028
856.302185	1554.761353
856.605286	1719.728760
856.908508	1681.311768
857.211548	1631.595581
857.514587	1611.257080
857.817566	1586.398926
858.120483	1656.453613
858.423340	1683.571533
858.726196	1642.894653
859.028931	1710.689453
859.331665	1613.516968
859.634277	1724.248413
859.936890	1620.296387
860.239441	1627.075928
860.541992	1656.453613
860.844421	1613.516968
861.146912	1561.540894
861.449219	1547.981934
861.751526	1622.556274
862.053772	1773.964722
862.355957	1599.958008
862.658081	1577.359619
862.960266	1550.241699
863.262207	1561.540894
863.564331	1681.311768
863.866211	1604.477661
864.168091	1505.045166
864.469910	1511.824707
864.771729	1561.540894
865.073425	1581.879272
865.375122	1484.706787
865.676819	1602.217773
865.978333	1559.281006
866.279907	1663.233154
866.581360	1570.580200
866.882874	1590.918701
867.184143	1602.217773
867.485535	1613.516968
867.786743	1660.973267
868.088013	1642.894653
868.389160	1566.060547
868.690308	1527.643433
868.991333	1615.776733
869.292358	1606.737427
869.593323	1672.272461
869.894287	1486.966553
870.195068	1577.359619
870.495911	1550.241699
870.796692	1631.595581
871.097412	1579.619507
871.398010	1532.163086
871.698669	1554.761353
871.999207	1604.477661
872.299683	1543.462280
872.600159	1593.178467
872.900574	1536.682739
873.200867	1566.060547
873.501160	1543.462280
873.801392	1547.981934
874.101624	1527.643433
874.401733	1590.918701
874.701843	1577.359619
875.001831	1642.894653
875.301819	1588.658813
875.601746	1620.296387
875.901672	1588.658813
876.201477	1516.344360
876.501282	1606.737427
876.800964	1541.202393
877.100647	1566.060547
877.400208	1563.800659
877.699829	1746.846802
877.999329	1543.462280
878.298767	1649.674194
878.598206	1651.933960
878.897583	1590.918701
879.196838	1647.414307
879.496155	1484.706787
879.795288	1683.571533
880.094482	1688.091187
880.393555	1622.556274
880.692627	1618.036621
880.991577	1697.130493
881.290588	1767.185181
881.589355	1825.940674
881.888306	2144.576416
882.187012	2370.559082
882.485840	2745.690430
882.784424	3046.247559
883.083069	3193.136475
883.381592	3504.992676
883.680176	3511.772217
883.978638	3559.228516
884.277039	3410.079834
884.575378	3335.505615
884.873779	3116.302246
885.171997	3034.948486
885.470276	3100.483398
885.768311	2901.618652
886.066528	2777.328125
886.364502	2601.061523
886.662537	2555.864990
886.960510	2375.078857
887.258362	2189.772949
887.556213	2036.104736
887.854004	1932.152588
888.151733	1990.908081
888.449402	1945.711548
888.747009	1753.626221
889.044617	1771.704834
889.342163	1746.846802
889.639648	1690.351074
889.937012	1663.233154
890.234436	1728.768066
890.531738	1683.571533
890.829041	1618.036621
891.126221	1590.918701
891.423401	1595.438354
891.720459	1550.241699
892.017578	1618.036621
892.314514	1545.722046
892.611511	1658.713501
>>>>>End Processed Spectral Data<<<<<
