Jaz Data File
++++++++++++++++++++++++++++++++++++
Date: Mon Apr 25 12:43:35 2016
User: jaz
Dark Spectrum Present: Yes
Reference Spectrum Present: Yes
Processed Spectrum Present: No
Spectrometers: JAZA3098
Integration Time (usec): 938000 (JAZA3098)
Spectra Averaged: 1 (JAZA3098)
Boxcar Smoothing: 0 (JAZA3098)
Correct for Electrical Dark: No (JAZA3098)
Strobe/Lamp Enabled: Yes (JAZA3098)
Correct for Detector Non-linearity: No (JAZA3098)
Correct for Stray Light: No (JAZA3098)
Number of Pixels in Processed Spectrum: 2048
>>>>>Begin Processed Spectral Data<<<<<
W	D	R	S
190.313904	0.000000	0.000000	0.000000
190.695511	0.000000	0.000000	0.000000
191.077087	1064.378784	1152.512085	1132.173584
191.458633	1209.007813	1105.055664	1175.110352
191.840149	1138.953125	1218.047119	1163.811279
192.221634	1166.071045	1170.590698	1145.732544
192.603088	1267.763306	1337.817993	1249.684692
192.984528	1362.676025	1396.573486	1306.180420
193.365921	1256.464111	1312.959839	1294.881226
193.747284	1263.243652	1265.503418	1254.204346
194.128616	1265.503418	1245.165039	1303.920532
194.509918	1292.621338	1342.337646	1346.857300
194.891190	1324.259033	1267.763306	1267.763306
195.272446	1353.636719	1247.424805	1260.983765
195.653656	1473.407593	1401.093140	1367.195679
196.034836	1346.857300	1224.826538	1283.582031
196.416000	1279.062378	1242.905151	1222.566772
196.797104	1349.117065	1371.715332	1315.219727
197.178192	1303.920532	1353.636719	1396.573486
197.559265	1242.905151	1331.038452	1258.723999
197.940292	1240.645386	1231.606079	1272.282959
198.321304	1333.298340	1312.959839	1312.959839
198.702271	1317.479492	1231.606079	1346.857300
199.083221	1272.282959	1326.518799	1281.322266
199.464111	1288.101685	1321.999146	1301.660645
199.844986	1373.975220	1290.361572	1358.156372
200.225830	1254.204346	1213.527466	1238.385498
200.606659	1238.385498	1229.346191	1321.999146
200.987427	1437.250366	1430.470825	1505.045166
201.368195	1328.778687	1340.077759	1425.951172
201.748917	1303.920532	1303.920532	1383.014526
202.129608	1279.062378	1353.636719	1360.416260
202.510284	1279.062378	1315.219727	1321.999146
202.890915	1211.267578	1290.361572	1274.542725
203.271515	1308.440186	1292.621338	1272.282959
203.652100	1335.558105	1351.376953	1346.857300
204.032623	1315.219727	1270.023071	1355.896606
204.413147	1267.763306	1258.723999	1279.062378
204.793625	1385.274292	1317.479492	1378.494873
205.174088	1224.826538	1240.645386	1240.645386
205.554504	1206.747925	1245.165039	1285.841919
205.934906	1290.361572	1229.346191	1233.865845
206.315247	1288.101685	1279.062378	1285.841919
206.695587	1206.747925	1272.282959	1297.140991
207.075882	1301.660645	1308.440186	1335.558105
207.456146	1265.503418	1308.440186	1290.361572
207.836380	1260.983765	1312.959839	1292.621338
208.216599	1163.811279	1346.857300	1270.023071
208.596771	1260.983765	1319.739380	1256.464111
208.976913	1371.715332	1405.612793	1337.817993
209.357025	1552.501587	1459.848633	1475.667480
209.737106	1197.708618	1297.140991	1270.023071
210.117157	1270.023071	1362.676025	1324.259033
210.497177	1279.062378	1283.582031	1333.298340
210.877167	1254.204346	1249.684692	1331.038452
211.257126	1254.204346	1315.219727	1245.165039
211.637070	1349.117065	1360.416260	1419.171753
212.016968	1251.944458	1353.636719	1306.180420
212.396835	1308.440186	1292.621338	1270.023071
212.776672	1218.047119	1238.385498	1258.723999
213.156464	1177.370239	1218.047119	1215.787231
213.536255	1274.542725	1220.306885	1260.983765
213.916000	1249.684692	1279.062378	1351.376953
214.295700	1211.267578	1319.739380	1319.739380
214.675400	1247.424805	1299.400879	1315.219727
215.055038	1193.188965	1236.125732	1319.739380
215.434662	1281.322266	1312.959839	1242.905151
215.814240	1310.700073	1439.510132	1396.573486
216.193787	1190.929199	1285.841919	1260.983765
216.573334	1297.140991	1353.636719	1371.715332
216.952820	1229.346191	1292.621338	1353.636719
217.332275	1283.582031	1310.700073	1184.149658
217.711716	1414.652100	1437.250366	1412.392212
218.091125	1233.865845	1195.448853	1227.086426
218.470505	1439.510132	1464.368286	1534.422974
218.849854	1218.047119	1299.400879	1317.479492
219.229156	1251.944458	1315.219727	1342.337646
219.608444	1281.322266	1344.597412	1279.062378
219.987671	1297.140991	1414.652100	1373.975220
220.366898	1303.920532	1371.715332	1412.392212
220.746094	1303.920532	1340.077759	1412.392212
221.125244	1369.455566	1421.431519	1362.676025
221.504364	1292.621338	1317.479492	1369.455566
221.883469	1337.817993	1247.424805	1290.361572
222.262512	1249.684692	1260.983765	1238.385498
222.641556	1211.267578	1270.023071	1206.747925
223.020554	1337.817993	1331.038452	1321.999146
223.399521	1297.140991	1353.636719	1308.440186
223.778473	1220.306885	1251.944458	1247.424805
224.157364	1297.140991	1321.999146	1220.306885
224.536240	1279.062378	1260.983765	1349.117065
224.915085	1197.708618	1283.582031	1260.983765
225.293900	1220.306885	1373.975220	1236.125732
225.672684	1317.479492	1355.896606	1276.802612
226.051437	1288.101685	1324.259033	1303.920532
226.430161	1238.385498	1283.582031	1349.117065
226.808838	1315.219727	1303.920532	1324.259033
227.187500	1378.494873	1444.029785	1464.368286
227.566132	1222.566772	1245.165039	1242.905151
227.944717	1303.920532	1358.156372	1294.881226
228.323288	1333.298340	1412.392212	1346.857300
228.701813	1279.062378	1312.959839	1376.234985
229.080307	1249.684692	1249.684692	1317.479492
229.458786	1315.219727	1351.376953	1335.558105
229.837234	1297.140991	1373.975220	1324.259033
230.215637	1247.424805	1389.793945	1392.053833
230.594009	1303.920532	1376.234985	1401.093140
230.972351	1242.905151	1410.132446	1371.715332
231.350662	1358.156372	1500.525513	1398.833252
231.728958	1227.086426	1405.612793	1398.833252
232.107193	1254.204346	1459.848633	1439.510132
232.485413	1166.071045	1392.053833	1407.872559
232.863602	1159.291626	1378.494873	1342.337646
233.241760	1215.787231	1328.778687	1373.975220
233.619873	1249.684692	1455.328979	1369.455566
233.997986	1299.400879	1419.171753	1428.211060
234.376038	1317.479492	1383.014526	1410.132446
234.754074	1276.802612	1385.274292	1459.848633
235.132065	1274.542725	1403.352905	1373.975220
235.510025	1292.621338	1407.872559	1498.265747
235.887970	1288.101685	1373.975220	1358.156372
236.265869	1215.787231	1498.265747	1455.328979
236.643738	1251.944458	1394.313599	1450.809326
237.021576	1260.983765	1331.038452	1346.857300
237.399384	1190.929199	1401.093140	1396.573486
237.777161	1353.636719	1466.628174	1509.564819
238.154892	1270.023071	1340.077759	1362.676025
238.532623	1279.062378	1444.029785	1369.455566
238.910309	1245.165039	1414.652100	1419.171753
239.287949	1247.424805	1392.053833	1396.573486
239.665573	1319.739380	1437.250366	1471.147827
240.043167	1306.180420	1405.612793	1446.289673
240.420715	1274.542725	1405.612793	1414.652100
240.798233	1297.140991	1446.289673	1432.730713
241.175735	1301.660645	1484.706787	1482.446899
241.553207	1276.802612	1380.754639	1416.911865
241.930634	1240.645386	1405.612793	1403.352905
242.308014	1240.645386	1545.722046	1428.211060
242.685394	1229.346191	1516.344360	1568.320313
243.062729	1360.416260	1660.973267	1660.973267
243.440033	1245.165039	1615.776733	1642.894653
243.817307	1247.424805	1627.075928	1753.626221
244.194534	1195.448853	1749.106567	1663.233154
244.571747	1260.983765	1708.429688	1740.067261
244.948929	1276.802612	1735.547607	1742.327148
245.326065	1267.763306	1645.154541	1690.351074
245.703186	1272.282959	1667.752808	1688.091187
246.080261	1211.267578	1579.619507	1577.359619
246.457306	1260.983765	1557.021240	1636.115234
246.834320	1267.763306	1667.752808	1719.728760
247.211304	1249.684692	1697.130493	1676.792114
247.588257	1299.400879	1832.720215	1771.704834
247.965195	1342.337646	1902.774902	1952.491089
248.342087	1190.929199	1986.388428	1993.167969
248.718933	1276.802612	2002.207275	2040.624390
249.095764	1274.542725	1975.089355	2085.820801
249.472549	1274.542725	2167.174561	2194.292725
249.849319	1204.488159	2063.222656	2049.663574
250.226044	1324.259033	2008.986694	1932.152588
250.602737	1331.038452	1895.995361	1832.720215
250.979401	1297.140991	1789.783447	1828.200562
251.356033	1387.534180	1857.578247	1893.735596
251.732635	1310.700073	1740.067261	1778.484375
252.109207	1337.817993	1767.185181	1764.925415
252.485748	1328.778687	1755.886108	1776.224487
252.862244	1233.865845	1692.610840	1649.674194
253.238724	1260.983765	1794.303101	1737.807495
253.615158	1211.267578	1812.381714	1773.964722
253.991577	1238.385498	1834.979980	1767.185181
254.367950	1181.889893	1749.106567	1825.940674
254.744308	1360.416260	1859.838135	1918.593628
255.120621	1301.660645	1746.846802	1710.689453
255.496902	1229.346191	1710.689453	1656.453613
255.873154	1213.527466	1726.508301	1679.051880
256.249390	1179.630005	1679.051880	1627.075928
256.625549	1310.700073	1647.414307	1670.012573
257.001709	1297.140991	1762.665527	1814.641602
257.377838	1297.140991	1814.641602	1746.846802
257.753937	1315.219727	1787.523682	1699.390381
258.129974	1213.527466	1710.689453	1792.043335
258.506012	1283.582031	1855.318481	1719.728760
258.881989	1317.479492	1911.814209	1875.656860
259.257935	1383.014526	1943.451782	2029.325195
259.633911	1267.763306	2022.545654	2067.742188
260.009766	1301.660645	2079.041504	2133.277344
260.385651	1387.534180	2436.094238	2388.637695
260.761475	1197.708618	2343.441162	2424.794922
261.137299	1337.817993	2476.770996	2436.094238
261.513062	1251.944458	2695.974365	2451.912842
261.888763	1335.558105	2822.524658	2686.935059
262.264496	1285.841919	2521.967529	2558.124756
262.640137	1202.228271	2402.196777	2501.629150
263.015808	1177.370239	2298.244629	2298.244629
263.391388	1337.817993	2350.220703	2370.559082
263.766998	1419.171753	2216.890869	2237.229248
264.142517	1324.259033	2189.772949	2151.355957
264.518036	1281.322266	1999.947388	2067.742188
264.893524	1342.337646	2033.844849	2099.379883
265.268951	1376.234985	2033.844849	2099.379883
265.644379	1220.306885	2038.364502	1981.868774
266.019745	1263.243652	1981.868774	2004.467041
266.395111	1326.518799	2094.860107	2074.521729
266.770386	1274.542725	2085.820801	2060.962891
267.145691	1227.086426	2013.506348	2006.726929
267.520966	1285.841919	2162.655029	2160.395264
267.896149	1337.817993	2230.449951	2176.214111
268.271362	1299.400879	2207.851563	2135.537109
268.646515	1184.149658	2173.954102	2045.144043
269.021606	1274.542725	2239.489258	2286.945557
269.396729	1281.322266	2167.174561	2255.307861
269.771790	1279.062378	2241.749023	2207.851563
270.146790	1202.228271	2266.607178	2284.685791
270.521790	1376.234985	2381.858398	2411.236084
270.896759	1328.778687	2379.598389	2266.607178
271.271667	1301.660645	2336.661865	2427.054932
271.646545	1195.448853	2311.803711	2408.976318
272.021423	1251.944458	2442.873535	2499.369385
272.396271	1231.606079	2460.952393	2569.424072
272.771027	1229.346191	2580.723145	2576.203369
273.145813	1337.817993	2736.651123	2725.352051
273.520538	1308.440186	2840.603271	2723.092285
273.895233	1265.503418	2754.729980	2689.194824
274.269897	1258.723999	2639.478760	2716.312744
274.644501	1229.346191	2573.943604	2528.747070
275.019135	1229.346191	2610.100830	2589.762451
275.393677	1265.503418	2494.849609	2528.747070
275.768250	1209.007813	2440.613770	2499.369385
276.142700	1177.370239	2422.535156	2458.692383
276.517212	1204.488159	2580.723145	2433.834229
276.891632	1247.424805	2553.605225	2587.502686
277.266022	1283.582031	2659.817139	2503.888916
277.640381	1303.920532	2662.076904	2689.194824
278.014740	1321.999146	2648.518066	2693.714600
278.389038	1220.306885	2718.572510	2725.352051
278.763336	1199.968506	2811.225586	2643.998291
279.137543	1285.841919	2732.131592	2625.919678
279.511780	1215.787231	2677.895752	2650.777832
279.885925	1281.322266	2634.958984	2770.548584
280.260101	1190.929199	2637.218750	2705.013672
280.634186	1240.645386	2818.005127	2714.052979
281.008301	1360.416260	2847.382813	2890.319580
281.382294	1247.424805	2815.745117	2723.092285
281.756348	1263.243652	2867.721191	2926.476807
282.130280	1186.409546	2978.452881	2890.319580
282.504272	1394.313599	3202.175781	2987.492188
282.878143	1283.582031	3154.719238	3208.955322
283.252014	1220.306885	3242.852539	3231.553467
283.625854	1396.573486	3468.835449	3416.859375
283.999664	1199.968506	3367.143066	3315.166992
284.373444	1260.983765	3423.638916	3416.859375
284.747192	1231.606079	3319.686768	3290.309082
285.120941	1378.494873	3448.496826	3410.079834
285.494629	1184.149658	3342.285156	3387.481689
285.868256	1213.527466	3405.560303	3301.608154
286.241882	1317.479492	3486.914063	3518.551514
286.615448	1353.636719	3712.896729	3735.495117
286.988983	1202.228271	3640.582275	3672.219971
287.362518	1276.802612	3843.966797	3850.746338
287.736023	1303.920532	3904.982178	3934.359863
288.109467	1303.920532	3855.265869	3886.903564
288.482880	1344.597412	3891.423096	3846.226563
288.856262	1319.739380	3740.014648	3746.794189
289.229584	1290.361572	3737.754883	3615.724121
289.602936	1260.983765	3597.645508	3520.811523
289.976227	1260.983765	3701.597656	3617.984131
290.349457	1204.488159	3685.778809	3726.455811
290.722687	1249.684692	3726.455811	3676.739502
291.095886	1267.763306	3923.060791	3900.462402
291.469025	1136.693237	3880.124023	3997.635010
291.842133	1179.630005	4101.586914	4137.744141
292.215240	1303.920532	4185.200684	4065.429932
292.588287	1240.645386	4137.744141	4140.004395
292.961304	1240.645386	3999.894775	4031.532471
293.334320	1317.479492	3956.958252	4033.792236
293.707245	1279.062378	4013.453857	3873.344482
294.080170	1265.503418	3999.894775	3936.619629
294.453064	1328.778687	4103.847168	4002.154785
294.825897	1224.826538	4171.641602	4126.445313
295.198730	1285.841919	4246.216309	4171.641602
295.571533	1297.140991	4420.222656	4406.664063
295.944275	1272.282959	4539.993652	4478.978516
296.317017	1346.857300	4628.126953	4763.716797
296.689697	1301.660645	4752.417480	4691.402344
297.062317	1279.062378	4747.897949	4759.196777
297.434967	1254.204346	5010.037598	4885.747070
297.807526	1227.086426	5039.415527	5043.935059
298.180115	1204.488159	5247.319824	4890.267090
298.552612	1260.983765	5084.612305	5082.352539
298.925110	1283.582031	5129.808594	5168.225586
299.297546	1297.140991	5206.642578	5062.013672
299.669983	1249.684692	5043.935059	5107.210449
300.042358	1270.023071	4917.384766	4885.747070
300.414734	1238.385498	4804.393555	4675.583496
300.787048	1220.306885	4607.788574	4558.072266
301.159332	1279.062378	4585.190430	4472.198730
301.531616	1222.566772	4361.467285	4334.349121
301.903809	1292.621338	4490.277344	4458.639648
302.276031	1260.983765	4309.491211	4255.255371
302.648163	1213.527466	4338.869141	4442.821289
303.020294	1258.723999	4390.845215	4216.838379
303.392395	1254.204346	4397.624512	4311.750977
303.764435	1292.621338	4228.137695	4144.523926
304.136444	1254.204346	4185.200684	4214.578613
304.508453	1245.165039	4318.530762	4341.128906
304.880371	1331.038452	4214.578613	4191.979980
305.252319	1245.165039	4160.342773	4187.460449
305.624207	1331.038452	4099.327148	4246.216309
305.996033	1263.243652	4144.523926	4182.940918
306.367859	1202.228271	4153.562988	4063.170166
306.739655	1206.747925	4108.366699	4187.460449
307.111389	1206.747925	4255.255371	4117.405762
307.483124	1222.566772	4268.814453	4146.783691
307.854828	1297.140991	4243.956055	4307.231445
308.226471	1199.968506	4291.412598	4212.318848
308.598083	1254.204346	4250.735840	4248.476074
308.969666	1231.606079	4381.805664	4397.624512
309.341187	1245.165039	4372.766602	4338.869141
309.712738	1249.684692	4634.906250	4639.426270
310.084167	1321.999146	4605.528809	4662.024414
310.455658	1299.400879	4890.267090	4854.109863
310.827057	1301.660645	4885.747070	4935.463379
311.198456	1292.621338	4826.991699	4824.731934
311.569794	1281.322266	4881.227539	4885.747070
311.941132	1251.944458	5007.777832	4894.786621
312.312408	1186.409546	4860.889160	4863.148926
312.683655	1242.905151	4872.188477	4926.424316
313.054840	1306.180420	4967.101074	4817.952637
313.426056	1328.778687	4890.267090	4822.472168
313.797180	1340.077759	4824.731934	4795.354004
314.168304	1279.062378	4822.472168	4763.716797
314.539368	1197.708618	4478.978516	4736.598633
314.910431	1206.747925	4808.913086	4675.583496
315.281433	1274.542725	4867.668457	4822.472168
315.652435	1333.298340	4971.620605	4788.574707
316.023346	1265.503418	4849.589844	4989.699219
316.394287	1294.881226	4872.188477	4933.203613
316.765137	1193.188965	4888.007324	4707.220703
317.135986	1279.062378	4802.133789	4813.432617
317.506775	1186.409546	4756.937012	4607.788574
317.877594	1380.754639	4768.236328	4716.260254
318.248291	1326.518799	4634.906250	4497.057129
318.619019	1265.503418	4512.875977	4569.371582
318.989655	1251.944458	4573.891113	4564.851563
319.360321	1335.558105	4612.308105	4528.694336
319.730896	1290.361572	4632.646484	4591.969727
320.101501	1240.645386	4729.819336	4761.456543
320.472015	1251.944458	4847.330078	4700.441406
320.842529	1283.582031	4610.048340	4695.921875
321.213013	1224.826538	4709.480957	4765.976563
321.583466	1249.684692	4555.812500	4641.686035
321.953827	1242.905151	4546.772949	4537.733887
322.324188	1272.282959	4637.166504	4675.583496
322.694519	1206.747925	4573.891113	4510.615723
323.064819	1288.101685	4723.039551	4573.891113
323.435059	1349.117065	4928.684082	4741.118164
323.805328	1276.802612	4937.723145	4892.526855
324.175507	1283.582031	5161.446289	5120.769531
324.545685	1190.929199	5172.745605	5263.138672
324.915802	1263.243652	5498.160645	5421.326660
325.285919	1260.983765	5717.363770	5574.994629
325.655975	1281.322266	5697.025391	5717.363770
326.025970	1260.983765	5484.601563	5475.562500
326.395966	1247.424805	5554.656250	5626.970703
326.765930	1193.188965	5529.798340	5369.350586
327.135864	1310.700073	5563.695801	5434.885254
327.505737	1274.542725	5559.175781	5419.066406
327.875580	1326.518799	5556.916016	5437.145020
328.245422	1428.211060	5267.658203	5482.341797
328.615204	1373.975220	5290.256348	5226.981445
328.984955	1236.125732	5175.005371	5062.013672
329.354675	1281.322266	5163.706055	5034.895996
329.724365	1236.125732	5134.328125	5091.391602
330.093994	1328.778687	5057.494141	5075.572754
330.463623	1283.582031	5197.603516	5204.382813
330.833191	1236.125732	5245.060059	5175.005371
331.202759	1265.503418	5215.682129	5220.201660
331.572266	1247.424805	5156.926758	5242.800293
331.941711	1367.195679	5251.839355	5378.389648
332.311188	1283.582031	5378.389648	5326.413574
332.680573	1294.881226	5407.767578	5362.570801
333.049988	1218.047119	5636.010254	5523.018555
333.419312	1265.503418	5631.490234	5676.687012
333.788635	1157.031738	5656.348633	5767.080078
334.157867	1236.125732	6015.661133	5970.464355
334.527130	1317.479492	5970.464355	5977.244141
334.896332	1279.062378	6137.691895	6243.903809
335.265503	1274.542725	6119.613281	6065.377441
335.634613	1274.542725	6146.730957	6065.377441
336.003723	1344.597412	6126.392578	6101.534668
336.372772	1364.935913	6029.220215	6135.432129
336.741821	1285.841919	5873.291992	5918.488281
337.110809	1240.645386	5950.125977	5685.726074
337.479797	1308.440186	5823.575684	5900.409668
337.848724	1403.352905	5843.914063	5794.198242
338.217590	1161.551392	5993.062988	5956.905762
338.586487	1170.590698	5773.859375	5819.056152
338.955292	1283.582031	6004.361816	5954.645996
339.324036	1265.503418	5927.527832	5943.346680
339.692841	1231.606079	6045.039063	6002.102051
340.061523	1204.488159	6058.597656	5830.355469
340.430237	1240.645386	5780.639160	5961.425293
340.798859	1353.636719	6072.156738	6112.833496
341.167511	1233.865845	5852.953613	6045.039063
341.536072	1256.464111	5979.503906	5902.669922
341.904663	1238.385498	5929.787598	5974.984375
342.273102	1218.047119	6038.259277	6056.337891
342.641632	1405.612793	6117.353516	6205.486816
343.010040	1224.826538	6006.621582	5972.724609
343.378510	1299.400879	6187.408203	6067.637207
343.746826	1233.865845	6295.879883	6216.785645
344.115204	1231.606079	6406.611328	6205.486816
344.483490	1233.865845	6205.486816	6379.493164
344.851776	1299.400879	6397.571777	6485.705078
345.220001	1335.558105	6774.963379	6569.318848
345.588196	1285.841919	6759.144531	6808.860840
345.956329	1251.944458	7034.843262	6937.670898
346.324524	1258.723999	7061.961426	6942.190430
346.692596	1218.047119	7116.197266	6962.528809
347.060669	1371.715332	7100.378418	7118.457031
347.428680	1294.881226	6537.681152	6822.419434
347.796692	1247.424805	6668.751465	6725.247070
348.164612	1285.841919	6637.113770	6682.310059
348.532562	1315.219727	6643.893066	6573.838379
348.900421	1337.817993	6616.775391	6363.674805
349.268311	1229.346191	6361.414551	6293.620117
349.636108	1276.802612	6481.185547	6467.626465
350.003906	1312.959839	6365.934570	6352.375488
350.371643	1249.684692	6512.823242	6404.351563
350.739380	1355.896606	6763.664063	6680.050293
351.107025	1247.424805	6591.916992	6646.152832
351.474701	1279.062378	6659.711914	6585.137695
351.842285	1242.905151	6813.380371	6503.783691
352.209900	1267.763306	6718.467285	6768.183594
352.577393	1272.282959	6964.788574	6867.616211
352.944946	1215.787231	6734.286133	6650.672852
353.312378	1195.448853	6804.340820	6921.852051
353.679840	1285.841919	6887.954590	6937.670898
354.047211	1270.023071	7152.354492	7177.212402
354.414612	1279.062378	7231.448242	7028.063965
354.781891	1218.047119	7319.581543	7328.621094
355.149231	1263.243652	7513.926758	7466.470215
355.516449	1272.282959	7631.437988	7626.917969
355.883698	1267.763306	7706.012207	7767.027344
356.250854	1315.219727	8083.403320	7843.861816
356.618011	1233.865845	8381.700195	7950.073730
356.985168	1238.385498	8108.261719	8270.968750
357.352234	1335.558105	8664.178711	8585.084961
357.719269	1209.007813	8915.019531	8725.194336
358.086304	1175.110352	9305.969727	9177.160156
358.453278	1242.905151	9633.645508	9240.435547
358.820190	1256.464111	9583.928711	9305.969727
359.187103	1251.944458	9529.693359	9525.173828
359.554016	1258.723999	9649.463867	9588.448242
359.920837	1222.566772	9276.592773	9495.795898
360.287628	1184.149658	9278.852539	9226.875977
360.654388	1242.905151	9520.653320	9308.229492
361.021149	1224.826538	9803.131836	9733.077148
361.387848	1265.503418	10316.113281	10139.846680
361.754486	1190.929199	10596.332031	10829.093750
362.121124	1206.747925	11224.563477	11186.146484
362.487732	1276.802612	12033.582031	11814.378906
362.854279	1245.165039	11855.055664	11839.237305
363.220795	1349.117065	12137.534180	11920.590820
363.587311	1333.298340	11681.048828	11439.247070
363.953735	1319.739380	11247.162109	11005.360352
364.320160	1272.282959	10686.724609	10356.790039
364.686554	1249.684692	9778.274414	9839.289063
365.052887	1265.503418	9371.504883	9163.600586
365.419189	1274.542725	9213.317383	8971.515625
365.785492	1202.228271	8709.375977	8869.823242
366.151703	1270.023071	8768.130859	8630.281250
366.517944	1324.259033	8765.871094	8562.487305
366.884094	1403.352905	8797.508789	8682.257813
367.250214	1324.259033	8600.904297	8467.574219
367.616333	1279.062378	8639.321289	8519.549805
367.982361	1265.503418	8551.187500	8449.495117
368.348419	1179.630005	8368.141602	8273.228516
368.714386	1281.322266	8395.259766	8363.622070
369.080383	1333.298340	8395.259766	8311.645508
369.446289	1358.156372	8273.228516	8413.337891
369.812195	1281.322266	8153.458008	8128.600098
370.178009	1260.983765	7965.892578	7988.490723
370.543854	1236.125732	8002.049805	8060.805176
370.909607	1251.944458	8372.661133	7952.333496
371.275360	1211.267578	8284.528320	8216.733398
371.641052	1270.023071	8352.323242	8429.157227
372.006744	1254.204346	8408.818359	8311.645508
372.372375	1324.259033	8628.021484	8632.541016
372.737976	1279.062378	8494.692383	8646.100586
373.103546	1303.920532	8607.683594	8469.833984
373.469055	1270.023071	8580.565430	8528.589844
373.834595	1301.660645	8585.084961	8528.589844
374.199982	1265.503418	8555.707031	8544.408203
374.565460	1236.125732	8390.740234	8603.164063
374.930817	1166.071045	8508.250977	8560.226563
375.296204	1238.385498	8722.934570	8659.659180
375.661499	1224.826538	8917.279297	8702.595703
376.026825	1353.636719	9265.292969	9120.664063
376.391998	1236.125732	9299.190430	8878.862305
376.757263	1222.566772	9443.819336	9326.308594
377.122406	1236.125732	9635.905273	9733.077148
377.487549	1249.684692	10128.547852	9841.548828
377.852631	1177.370239	10035.894531	10270.916992
378.217743	1279.062378	10682.205078	10494.639648
378.582764	1209.007813	10465.261719	10627.969727
378.947754	1319.739380	10566.954102	10539.835938
379.312714	1233.865845	10259.617188	10209.901367
379.677673	1238.385498	9918.383789	9857.368164
380.042542	1267.763306	9678.841797	9570.370117
380.407379	1333.298340	9437.040039	9274.333008
380.772186	1274.542725	9272.072266	9324.048828
381.136993	1199.968506	9244.955078	9068.688477
381.501740	1247.424805	9233.655273	9179.419922
381.866486	1285.841919	9172.640625	9305.969727
382.231110	1290.361572	9186.199219	9077.727539
382.595764	1238.385498	9145.522461	9111.625000
382.960327	1179.630005	8926.319336	9043.830078
383.324951	1163.811279	9134.223633	9057.388672
383.689453	1247.424805	9238.174805	9195.238281
384.053986	1229.346191	9543.251953	9579.409180
384.418396	1229.346191	9615.566406	9669.802734
384.782867	1267.763306	9531.953125	9780.534180
385.147217	1315.219727	10049.453125	9692.400391
385.511597	1224.826538	9859.627930	10130.807617
385.875885	1247.424805	10119.507813	9943.241211
386.240204	1283.582031	10133.067383	9882.226563
386.604401	1218.047119	10169.224609	10169.224609
386.968628	1233.865845	10363.569336	10300.293945
387.332764	1224.826538	10386.167969	10207.641602
387.696930	1222.566772	10431.364258	10388.427734
388.061005	1383.014526	10738.701172	10510.458008
388.425140	1260.983765	10478.820313	10539.835938
388.789124	1319.739380	10768.078125	10406.505859
389.153168	1319.739380	10519.497070	10598.591797
389.517090	1247.424805	10379.388672	10413.285156
389.881042	1199.968506	10686.724609	10415.545898
390.244873	1186.409546	10286.735352	10302.553711
390.608734	1387.534180	10670.906250	10521.757813
390.972534	1197.708618	10650.567383	10591.812500
391.336304	1224.826538	10811.015625	10661.866211
391.700043	1211.267578	11154.508789	10989.541992
392.063751	1197.708618	11667.490234	11075.415039
392.427399	1186.409546	11595.175781	11491.223633
392.791077	1455.328979	12151.092773	11882.173828
393.154663	1279.062378	11755.623047	11624.553711
393.518219	1242.905151	11762.402344	11488.963867
393.881744	1303.920532	11789.520508	11615.513672
394.245209	1195.448853	11299.137695	11464.105469
394.608704	1227.086426	11529.640625	11581.616211
394.972107	1279.062378	11658.450195	11348.854492
395.335480	1285.841919	11800.819336	11620.033203
395.698792	1265.503418	11678.789063	11610.994141
396.062103	1351.376953	11638.112305	11520.601563
396.425385	1254.204346	11152.249023	11199.706055
396.788635	1172.850586	10890.109375	10971.462891
397.151825	1195.448853	10621.189453	10867.510742
397.514984	1247.424805	10702.543945	10528.537109
397.878113	1281.322266	10535.316406	10499.159180
398.241180	1231.606079	10514.977539	10331.931641
398.604248	1258.723999	10279.956055	10359.049805
398.967285	1340.077759	10465.261719	10298.034180
399.330231	1247.424805	10499.159180	10451.703125
399.693176	1326.518799	10246.058594	10368.088867
400.056091	1364.935913	10309.333984	10277.696289
400.418976	1233.865845	10049.453125	10354.530273
400.781830	1254.204346	10264.136719	10065.272461
401.144592	1270.023071	9963.580078	10246.058594
401.507355	1333.298340	10218.940430	10171.484375
401.870087	1249.684692	10094.650391	10110.468750
402.232758	1328.778687	10390.687500	10166.964844
402.595428	1358.156372	10492.379883	10354.530273
402.958038	1260.983765	10585.032227	10368.088867
403.320618	1240.645386	10589.551758	10670.906250
403.683167	1279.062378	10790.676758	10817.794922
404.045654	1367.195679	10960.164063	10964.683594
404.408142	1254.204346	11224.563477	11073.155273
404.770569	1211.267578	11143.209961	11159.028320
405.132996	1353.636719	11733.025391	11649.411133
405.495331	1204.488159	11681.048828	11744.324219
405.857666	1367.195679	12223.407227	11859.575195
406.219940	1288.101685	11940.928711	11848.276367
406.582214	1290.361572	11900.251953	12017.763672
406.944427	1326.518799	11577.096680	11884.433594
407.306549	1267.763306	11690.087891	11416.649414
407.668732	1247.424805	11425.688477	11461.845703
408.030792	1220.306885	11441.506836	11301.397461
408.392914	1263.243652	11330.775391	11391.791016
408.754883	1267.763306	11000.840820	11082.194336
409.116943	1249.684692	11335.294922	11403.089844
409.478882	1283.582031	11436.987305	11373.711914
409.840820	1346.857300	11498.002930	11703.647461
410.202667	1274.542725	11656.190430	11794.040039
410.564575	1303.920532	11780.481445	11796.299805
410.926331	1179.630005	11617.773438	12096.857422
411.288147	1279.062378	11791.780273	11577.096680
411.649872	1260.983765	11588.396484	11836.976563
412.011566	1213.527466	11891.212891	11484.444336
412.373199	1337.817993	11726.245117	11730.765625
412.734894	1281.322266	11615.513672	11500.262695
413.096436	1209.007813	11274.280273	11287.838867
413.458008	1238.385498	11249.421875	11344.334961
413.819519	1301.660645	11314.957031	11344.334961
414.181030	1240.645386	11330.775391	11486.704102
414.542450	1179.630005	11703.647461	11452.806641
414.903870	1249.684692	11719.465820	11572.577148
415.265198	1288.101685	11721.725586	11882.173828
415.626587	1242.905151	11891.212891	11868.614258
415.987854	1240.645386	11773.702148	11839.237305
416.349152	1240.645386	12239.226563	12270.864258
416.710327	1267.763306	12288.942383	12243.746094
417.071533	1258.723999	12338.659180	12203.069336
417.432678	1260.983765	12853.899414	12824.521484
417.793823	1209.007813	13412.077148	13308.125000
418.154877	1233.865845	13296.825195	13378.179688
418.515930	1224.826538	13818.845703	13929.577148
418.876923	1279.062378	14492.274414	14424.479492
419.237915	1310.700073	15113.727539	14998.475586
419.598816	1283.582031	15256.096680	15326.150391
419.959717	1181.889893	15997.319336	15990.540039
420.320526	1188.669312	16519.339844	16589.394531
420.681396	1367.195679	17016.501953	16923.849609
421.042145	1297.140991	17714.789063	17534.001953
421.402924	1229.346191	18028.904297	18234.548828
421.763580	1231.606079	18731.710938	18706.853516
422.124298	1145.732544	19244.691406	19163.337891
422.484894	1312.959839	19283.109375	19183.675781
422.845520	1249.684692	19375.761719	19323.785156
423.206055	1193.188965	19039.046875	19170.117188
423.566589	1129.913818	18871.820313	18688.773438
423.927063	1303.920532	19170.117188	19025.488281
424.287506	1179.630005	18862.781250	19100.062500
424.647949	1258.723999	18944.134766	18842.443359
425.008301	1181.889893	18973.511719	19113.621094
425.368652	1245.165039	19249.210938	18767.869141
425.728943	1240.645386	19032.267578	18885.378906
426.089203	1242.905151	19154.298828	18948.654297
426.449432	1175.110352	18885.378906	18478.611328
426.809601	1256.464111	18785.947266	18313.642578
427.169739	1190.929199	18528.326172	18467.310547
427.529846	1279.062378	18110.257813	18252.626953
427.889954	1392.053833	18096.699219	17904.613281
428.250000	1227.086426	17278.642578	17122.712891
428.609985	1181.889893	17021.021484	17262.822266
428.969940	1184.149658	16752.101563	16887.691406
429.329865	1247.424805	16571.316406	16320.474609
429.689789	1263.243652	16372.451172	16263.979492
430.049622	1204.488159	16214.262695	16230.082031
430.409454	1229.346191	15877.548828	15818.792969
430.769226	1283.582031	15915.965820	15540.834961
431.128937	1258.723999	15554.393555	15477.559570
431.488678	1202.228271	15590.550781	15457.220703
431.848328	1231.606079	15576.992188	15540.834961
432.207947	1249.684692	15649.306641	15174.742188
432.567566	1206.747925	15927.264648	15866.250000
432.927124	1270.023071	16105.791016	16001.838867
433.286621	1276.802612	16148.728516	16221.042969
433.646118	1319.739380	16910.289063	16562.277344
434.005554	1344.597412	16652.669922	16462.843750
434.364960	1308.440186	16991.644531	16659.449219
434.724335	1315.219727	16702.386719	16618.771484
435.083649	1256.464111	16444.765625	16401.828125
435.442932	1220.306885	16503.521484	16422.167969
435.802216	1346.857300	16894.470703	16573.576172
436.161407	1358.156372	16467.363281	16105.791016
436.520630	1265.503418	16494.482422	16428.947266
436.879761	1177.370239	16221.042969	16297.876953
437.238831	1328.778687	16630.072266	16442.505859
437.597931	1288.101685	16702.386719	16883.171875
437.956940	1288.101685	16616.511719	16618.771484
438.315948	1263.243652	16862.833984	16749.841797
438.674896	1276.802612	16921.589844	16939.667969
439.033844	1274.542725	16706.906250	16842.496094
439.392700	1317.479492	16955.486328	16987.125000
439.751556	1231.606079	17086.556641	17118.193359
440.110352	1215.787231	17511.404297	17565.640625
440.469116	1251.944458	18089.919922	17990.488281
440.827850	1279.062378	18044.722656	18026.644531
441.186554	1285.841919	19023.228516	18828.882813
441.545197	1202.228271	19136.220703	19066.166016
441.903809	1353.636719	19515.871094	19190.457031
442.262390	1224.826538	19091.023438	19059.386719
442.620941	1317.479492	18831.142578	18758.828125
442.979462	1242.905151	18677.474609	18537.365234
443.337921	1301.660645	18672.955078	18431.154297
443.696350	1265.503418	18406.296875	18175.792969
444.054718	1249.684692	18121.558594	18327.201172
444.413086	1360.416260	18679.734375	18623.240234
444.771423	1362.676025	18957.693359	18727.191406
445.129669	1247.424805	18254.886719	18062.802734
445.487915	1236.125732	17167.910156	17204.068359
445.846130	1188.669312	17633.435547	17753.205078
446.204285	1270.023071	18019.865234	17954.330078
446.562408	1292.621338	18813.064453	18607.419922
446.920532	1213.527466	19411.919922	19789.310547
447.278595	1346.857300	19942.978516	20388.164063
447.636566	1333.298340	20736.177734	20623.187500
447.994568	1258.723999	21145.207031	21179.103516
448.352509	1285.841919	21104.529297	21344.072266
448.710419	1193.188965	20681.941406	20494.376953
449.068237	1242.905151	20537.312500	20422.062500
449.426056	1281.322266	20747.476563	20620.927734
449.783844	1190.929199	20248.054688	20449.179688
450.141602	1294.881226	19683.097656	19757.671875
450.499329	1265.503418	19778.011719	19608.523438
450.856964	1337.817993	19228.873047	19072.945313
451.214630	1270.023071	19235.652344	19030.007813
451.572235	1222.566772	18546.404297	18643.578125
451.929779	1260.983765	18779.167969	18618.718750
452.287323	1267.763306	18718.152344	18419.855469
452.644806	1279.062378	18521.546875	18521.546875
453.002258	1349.117065	18593.861328	18433.414063
453.359650	1249.684692	18257.146484	18065.062500
453.717010	1281.322266	18146.416016	18286.525391
454.074341	1238.385498	17902.353516	17995.007813
454.431641	1220.306885	17782.583984	17583.718750
454.788910	1231.606079	17204.068359	17319.318359
455.146118	1260.983765	17312.539063	17319.318359
455.503296	1254.204346	17152.091797	16957.746094
455.860443	1227.086426	17247.003906	17224.406250
456.217560	1279.062378	17244.744141	17204.068359
456.574615	1373.975220	17152.091797	17152.091797
456.931641	1441.770020	17027.800781	16989.384766
457.288635	1272.282959	17000.683594	16797.298828
457.645599	1220.306885	17093.335938	17120.453125
458.002502	1315.219727	17384.853516	17131.753906
458.359375	1233.865845	17353.216797	17418.751953
458.716217	1272.282959	18300.083984	17990.488281
459.073029	1236.125732	19039.046875	18853.742188
459.429779	1297.140991	19952.017578	19961.056641
459.786499	1272.282959	20892.105469	20998.318359
460.143219	1310.700073	22028.798828	22363.253906
460.499847	1256.464111	22537.261719	22290.939453
460.856476	1254.204346	23301.082031	23395.996094
461.213043	1274.542725	23185.832031	23136.115234
461.569550	1270.023071	22905.613281	23005.044922
461.926056	1416.911865	22871.714844	22394.892578
462.282501	1236.125732	21850.273438	21728.242188
462.638916	1240.645386	20614.148438	20345.228516
462.995331	1233.865845	20218.677734	20164.441406
463.351654	1199.968506	19707.957031	19911.341797
463.707947	1218.047119	19441.296875	19778.011719
464.064209	1297.140991	19156.558594	18871.820313
464.420441	1166.071045	18998.371094	18887.638672
464.776642	1147.992432	18575.783203	18363.359375
465.132782	1297.140991	18582.562500	18681.994141
465.488892	1260.983765	18352.060547	18410.816406
465.844971	1188.669312	18616.458984	18602.900391
466.201019	1238.385498	18887.638672	18641.318359
466.557007	1206.747925	18596.121094	18865.041016
466.912964	1265.503418	19188.195313	18896.677734
467.268890	1213.527466	19481.974609	19106.841797
467.624756	1197.708618	19570.107422	19156.558594
467.980591	1335.558105	19644.681641	19676.318359
468.336426	1349.117065	19635.642578	19999.474609
468.692169	1342.337646	19321.525391	19249.210938
469.047913	1267.763306	19034.527344	19000.630859
469.403625	1263.243652	18964.472656	18752.048828
469.759247	1227.086426	18729.451172	18487.650391
470.114838	1331.038452	18478.611328	18492.169922
470.470459	1247.424805	18528.326172	18480.871094
470.825958	1281.322266	18180.312500	18153.195313
471.181488	1254.204346	18462.791016	18250.367188
471.536926	1263.243652	18103.478516	18044.722656
471.892365	1247.424805	18367.878906	18383.697266
472.247742	1328.778687	18205.171875	18431.154297
472.603058	1274.542725	18433.414063	18526.066406
472.958374	1333.298340	18860.521484	18758.828125
473.313629	1297.140991	19143.000000	18826.623047
473.668884	1303.920532	19201.755859	19025.488281
474.024048	1181.889893	19382.541016	19441.296875
474.379211	1218.047119	19405.140625	19364.462891
474.734314	1245.165039	19409.660156	18975.773438
475.089417	1199.968506	19387.060547	19303.447266
475.444458	1157.031738	19495.533203	19102.322266
475.799438	1179.630005	19307.966797	19402.880859
476.154388	1170.590698	19739.593750	19764.453125
476.509308	1206.747925	20049.191406	20083.087891
476.864197	1251.944458	20338.449219	20340.708984
477.219025	1251.944458	20254.833984	20471.779297
477.573822	1193.188965	21167.804688	20998.318359
477.928619	1247.424805	21475.142578	21029.955078
478.283325	1272.282959	21547.457031	21857.052734
478.638000	1276.802612	22015.240234	22175.687500
478.992676	1272.282959	22040.099609	22125.972656
479.347260	1477.927246	23002.785156	22815.218750
479.701843	1328.778687	22819.738281	22672.849609
480.056366	1283.582031	23712.371094	23052.501953
480.410858	1251.944458	23703.332031	23829.882813
480.765320	1351.376953	24116.880859	24311.224609
481.119751	1270.023071	24846.804688	24566.585938
481.474091	1193.188965	25789.152344	25508.933594
481.828430	1163.811279	27140.529297	26876.128906
482.182709	1290.361572	28837.660156	28767.605469
482.536987	1175.110352	30618.404297	31190.140625
482.891174	1281.322266	33879.335938	33727.925781
483.245361	1258.723999	38532.320313	38062.277344
483.599518	1276.802612	44163.812500	43888.113281
483.953644	1254.204346	49492.484375	49065.378906
484.307678	1285.841919	52685.621094	52678.839844
484.661713	1258.723999	54762.402344	54588.394531
485.015686	1251.944458	55490.066406	55810.960938
485.369659	1272.282959	55022.281250	55083.296875
485.723572	1199.968506	53657.347656	53092.390625
486.077423	1197.708618	50737.648438	50518.445313
486.431274	1251.944458	47901.566406	47958.062500
486.785034	1227.086426	46373.921875	46484.652344
487.138794	1181.889893	46518.550781	45946.816406
487.492523	1351.376953	46979.554688	46796.511719
487.846191	1159.291626	47497.058594	47759.195313
488.199829	1288.101685	48260.878906	48150.148438
488.553436	1331.038452	48281.218750	48240.539063
488.906982	1224.826538	47921.906250	47820.210938
489.260529	1279.062378	46493.691406	46398.781250
489.613983	1281.322266	44670.011719	44812.382813
489.967438	1290.361572	42274.593750	42708.480469
490.320831	1294.881226	40857.683594	40991.011719
490.674194	1292.621338	40019.289063	39809.125000
491.027527	1161.551392	40148.097656	39788.785156
491.380798	1247.424805	40663.339844	40672.378906
491.734070	1317.479492	42028.273438	42340.128906
492.087250	1242.905151	43250.839844	43470.042969
492.440430	1215.787231	43499.421875	43616.933594
492.793549	1292.621338	43108.472656	42853.109375
493.146637	1190.929199	42414.703125	41763.875000
493.499695	1238.385498	39829.460938	39646.414063
493.852692	1306.180420	37086.031250	37122.187500
494.205658	1317.479492	34270.285156	34315.480469
494.558594	1346.857300	32588.974609	32403.667969
494.911499	1238.385498	30864.724609	30514.453125
495.264374	1197.708618	29664.757813	29334.822266
495.617188	1324.259033	28677.212891	28424.111328
495.969940	1227.086426	28112.255859	28048.980469
496.322693	1249.684692	27879.494141	27854.634766
496.675385	1288.101685	28069.318359	27922.429688
497.028015	1308.440186	28191.349609	28347.277344
497.380676	1274.542725	28155.191406	28299.820313
497.733246	1310.700073	28186.830078	28107.736328
498.085785	1805.602295	28867.037109	28869.296875
498.438263	1324.259033	28632.015625	27895.312500
498.790710	1202.228271	28082.876953	27795.878906
499.143158	1279.062378	27834.296875	27307.757813
499.495544	1224.826538	27325.835938	27149.568359
499.847870	1141.212891	26726.980469	26449.021484
500.200165	1251.944458	26417.384766	26338.291016
500.552429	1195.448853	25551.871094	25798.191406
500.904663	1267.763306	25210.636719	25079.566406
501.256866	1317.479492	25188.039063	25009.511719
501.609009	1274.542725	24690.876953	24600.484375
501.961090	1303.920532	24419.697266	24286.367188
502.313171	1254.204346	24340.603516	24331.564453
502.665253	1206.747925	24119.140625	24071.683594
503.017181	1308.440186	24112.361328	23710.111328
503.369110	1274.542725	23847.960938	23845.701172
503.721069	1303.920532	23979.031250	23956.431641
504.072937	1317.479492	24243.429688	23881.857422
504.424774	1340.077759	24040.046875	23902.197266
504.776520	1294.881226	24053.605469	24148.517578
505.128265	1170.590698	24593.703125	23768.867188
505.480042	1251.944458	24519.128906	24428.736328
505.831665	1315.219727	24180.156250	23818.583984
506.183289	1260.983765	24017.447266	23847.960938
506.534882	1274.542725	24381.279297	24015.187500
506.886505	1215.787231	23633.277344	23888.638672
507.237946	1168.330933	23606.160156	23791.464844
507.589417	1188.669312	24112.361328	23748.529297
507.940857	1297.140991	24073.943359	23965.472656
508.292297	1197.708618	24218.572266	23807.283203
508.643616	1254.204346	24311.224609	24193.714844
508.994904	1227.086426	24523.648438	24478.453125
509.346191	1279.062378	25023.070313	24830.986328
509.697479	1224.826538	25117.984375	24855.843750
510.048645	1215.787231	25249.054688	25332.667969
510.399780	1281.322266	25398.203125	25470.517578
510.750916	1288.101685	25511.193359	25646.783203
511.102051	1197.708618	25463.738281	25685.201172
511.453033	1385.274292	26019.654297	26180.103516
511.804016	1270.023071	26171.064453	25911.183594
512.154968	1222.566772	26331.511719	26006.095703
512.505920	1294.881226	26711.162109	26435.462891
512.856750	1254.204346	26055.812500	26180.103516
513.207581	1276.802612	26397.046875	26435.462891
513.558411	1290.361572	26256.937500	26121.347656
513.909180	1251.944458	26467.101563	26284.054688
514.259888	1276.802612	25949.599609	26071.630859
514.610535	1306.180420	25832.089844	25777.853516
514.961182	1218.047119	25707.798828	25721.357422
515.311829	1285.841919	25816.271484	25540.572266
515.662354	1274.542725	25610.626953	25610.626953
516.012878	1224.826538	26105.529297	25375.603516
516.363281	1211.267578	25816.271484	25775.593750
516.713745	1227.086426	25766.554688	25915.703125
517.064209	1211.267578	26275.015625	26433.203125
517.414490	1242.905151	27221.882813	26785.736328
517.764832	1204.488159	27633.171875	27696.447266
518.115173	1190.929199	28304.341797	28243.326172
518.465393	1242.905151	29648.937500	29529.167969
518.815552	1147.992432	30446.658203	30076.044922
519.165710	1321.999146	30726.876953	30894.103516
519.515869	1179.630005	31002.574219	30656.822266
519.865967	1177.370239	30921.220703	30952.859375
520.216003	1260.983765	30781.111328	30279.429688
520.565918	1179.630005	29908.818359	29773.228516
520.915955	1188.669312	29382.279297	29452.333984
521.265869	1206.747925	28376.656250	28950.652344
521.615723	1301.660645	28451.230469	28464.789063
521.965576	1274.542725	28349.537109	28498.685547
522.315369	1267.763306	27694.187500	27407.189453
522.665161	1188.669312	27398.150391	27389.111328
523.014832	1247.424805	27784.580078	27499.841797
523.364502	1265.503418	27685.148438	27755.203125
523.714172	1324.259033	27540.519531	27807.179688
524.063782	1315.219727	28616.197266	28290.781250
524.413330	1224.826538	28961.951172	28688.511719
524.762817	1290.361572	29899.779297	29728.033203
525.112366	1292.621338	30860.205078	30471.515625
525.461792	1222.566772	32281.636719	32085.033203
525.811157	1344.597412	33757.304688	33294.039063
526.160522	1190.929199	34923.375000	34582.140625
526.509827	1319.739380	35583.246094	35605.843750
526.859131	1258.723999	37201.281250	36559.492188
527.208313	1308.440186	38911.972656	38672.429688
527.557495	1199.968506	40181.996094	40568.425781
527.906738	1236.125732	43018.078125	42713.000000
528.255859	1224.826538	46866.566406	46500.472656
528.604919	1285.841919	50138.796875	50464.210938
528.953918	1256.464111	52776.015625	52649.464844
529.302917	1267.763306	53901.410156	53833.613281
529.651917	1337.817993	54717.207031	54195.187500
530.000793	1175.110352	54036.996094	53808.753906
530.349609	1353.636719	52278.851563	52188.457031
530.698547	1349.117065	49460.847656	49431.468750
531.047302	1358.156372	46315.167969	46001.050781
531.396057	1285.841919	43824.835938	43512.980469
531.744751	1215.787231	41329.988281	41461.058594
532.093445	1251.944458	40120.980469	40322.105469
532.442139	1281.322266	39646.414063	39854.320313
532.790710	1260.983765	39684.832031	39556.023438
533.139160	1199.968506	40765.031250	41049.769531
533.487732	1294.881226	41734.496094	41558.230469
533.836243	1321.999146	42328.832031	42204.539063
534.184631	1238.385498	42708.480469	42389.847656
534.533020	1247.424805	42385.328125	42538.996094
534.881348	1227.086426	41194.398438	40087.082031
535.229736	1267.763306	39526.644531	39479.187500
535.577942	1319.739380	38057.757813	37632.910156
535.926086	1358.156372	37031.796875	36541.414063
536.274353	1256.464111	36460.058594	35980.976563
536.622498	1331.038452	36084.925781	35691.718750
536.970642	1218.047119	36107.527344	35915.441406
537.318665	1188.669312	35678.160156	35321.105469
537.666687	1260.983765	35404.718750	34948.234375
538.014709	1249.684692	34729.031250	34362.937500
538.362610	1206.747925	33637.535156	33827.359375
538.710510	1209.007813	33210.425781	32880.492188
539.058411	1285.841919	31985.599609	31793.515625
539.406250	1256.464111	31759.617188	31212.738281
539.753967	1175.110352	31743.798828	31413.863281
540.101746	1184.149658	32130.228516	31818.373047
540.449463	1281.322266	33364.093750	33352.796875
540.797119	1337.817993	35540.308594	35183.257813
541.144714	1274.542725	37628.390625	37524.437500
541.492249	1256.464111	39784.265625	40019.289063
541.839844	1218.047119	42062.171875	41797.773438
542.187378	1251.944458	42715.261719	42936.726563
542.534790	1260.983765	43174.007813	42868.929688
542.882202	1238.385498	42500.578125	42859.890625
543.229553	1274.542725	41273.492188	41108.523438
543.576965	1204.488159	39863.359375	39768.445313
543.924194	1247.424805	38064.535156	38229.503906
544.271423	1152.512085	35971.937500	36123.343750
544.618652	1279.062378	34948.234375	34765.187500
544.965881	1353.636719	33149.410156	33486.125000
545.312988	1218.047119	31788.994141	31601.429688
545.660034	1299.400879	30876.025391	31029.693359
546.007141	1306.180420	30069.265625	30317.847656
546.354126	1229.346191	29662.498047	29560.804688
546.701111	1236.125732	29721.251953	29542.726563
547.048035	1249.684692	29348.380859	29590.183594
547.394836	1193.188965	29246.689453	28815.062500
547.741699	1220.306885	28600.378906	28392.474609
548.088562	1190.929199	28439.929688	28076.097656
548.435303	1211.267578	27508.880859	27289.677734
548.781921	1186.409546	26887.429688	26336.031250
549.128662	1199.968506	25664.861328	25368.824219
549.475342	1209.007813	24862.623047	25023.070313
549.821899	1274.542725	24019.707031	23881.857422
550.168457	1276.802612	23576.781250	23362.097656
550.515015	1285.841919	23118.037109	22964.369141
550.861511	1224.826538	22261.562500	22437.828125
551.207886	1206.747925	22227.664063	21793.777344
551.554260	1328.778687	22103.373047	21714.683594
551.900635	1276.802612	21825.416016	21622.031250
552.247009	1254.204346	21768.919922	21974.564453
552.593262	1197.708618	21689.826172	21735.021484
552.939392	1308.440186	22202.806641	22083.035156
553.285645	1265.503418	22485.285156	22196.027344
553.631775	1238.385498	21994.902344	21850.273438
553.977905	1184.149658	22114.673828	21789.257813
554.323975	1170.590698	21750.839844	21757.621094
554.669983	1340.077759	21848.013672	21411.867188
555.015991	1301.660645	21448.023438	21014.136719
555.361877	1224.826538	21142.947266	21009.617188
555.707825	1270.023071	20614.148438	20422.062500
556.053711	1213.527466	20300.031250	20245.794922
556.399536	1186.409546	20071.789063	20083.087891
556.745239	1245.165039	20309.070313	20408.503906
557.091003	1179.630005	19924.900391	19897.781250
557.436707	1166.071045	19800.609375	19811.908203
557.782410	1199.968506	19707.957031	19780.271484
558.127991	1310.700073	19463.894531	19400.619141
558.473511	1265.503418	19414.179688	19626.603516
558.819092	1152.512085	19167.857422	19170.117188
559.164612	1258.723999	18905.718750	19131.701172
559.510010	1229.346191	19097.802734	19061.646484
559.855408	1172.850586	19077.464844	19043.566406
560.200806	1254.204346	19066.166016	19063.906250
560.546143	1145.732544	19118.142578	18605.160156
560.891357	1238.385498	19181.416016	19041.306641
561.236633	1301.660645	19488.753906	19115.880859
561.581848	1206.747925	19317.005859	19249.210938
561.927002	1195.448853	19181.416016	19059.386719
562.272095	1195.448853	19371.242188	19323.785156
562.617126	1276.802612	19088.763672	18905.718750
562.962219	1272.282959	19425.478516	19217.574219
563.307251	1285.841919	19267.291016	19068.425781
563.652161	1272.282959	19005.150391	18989.332031
563.997009	1215.787231	18980.292969	18980.292969
564.341919	1213.527466	19084.244141	18982.552734
564.686768	1227.086426	19061.646484	19111.361328
565.031555	1249.684692	19448.076172	19283.109375
565.376282	1283.582031	19644.681641	19271.810547
565.721008	1270.023071	19870.664063	19633.382813
566.065674	1215.787231	20223.197266	20033.371094
566.410278	1247.424805	20268.394531	20616.408203
566.754822	1195.448853	20783.634766	20815.271484
567.099365	1227.086426	20623.187500	20903.406250
567.443909	1184.149658	20916.964844	21027.695313
567.788330	1294.881226	21041.255859	20828.832031
568.132751	1258.723999	20625.447266	20849.169922
568.477112	1211.267578	20679.681641	20446.919922
568.821533	1297.140991	20024.332031	20180.259766
569.165771	1260.983765	20555.392578	19952.017578
569.510010	1294.881226	19967.835938	19547.509766
569.854248	1283.582031	20137.324219	19502.312500
570.198364	1292.621338	19866.144531	19685.357422
570.542542	1276.802612	19750.892578	19662.759766
570.886536	1175.110352	20132.804688	20042.410156
571.230591	1238.385498	20103.425781	20365.566406
571.574646	1204.488159	20544.093750	20028.851563
571.918518	1254.204346	20919.224609	20541.833984
572.262451	1272.282959	20855.949219	20801.712891
572.606323	1274.542725	20878.546875	21341.812500
572.950195	1206.747925	21235.599609	20946.341797
573.293945	1236.125732	21441.244141	21260.458984
573.637695	1260.983765	21070.632813	20880.806641
573.981384	1143.472778	20993.798828	20939.562500
574.325134	1315.219727	20898.886719	20679.681641
574.668701	1238.385498	20831.091797	20564.431641
575.012268	1175.110352	20713.580078	20356.527344
575.355774	1215.787231	20537.312500	20313.589844
575.699341	1256.464111	20365.566406	20322.628906
576.042725	1331.038452	20259.355469	20173.480469
576.386169	1236.125732	19800.609375	19863.884766
576.729553	1299.400879	19854.845703	19649.201172
577.072876	1353.636719	19432.257813	19529.429688
577.416138	1285.841919	18785.947266	18932.835938
577.759399	1265.503418	18729.451172	18711.373047
578.102600	1188.669312	18602.900391	18209.691406
578.445801	1195.448853	17802.921875	18272.966797
578.788940	1204.488159	17479.765625	17529.482422
579.131897	1204.488159	17468.466797	17301.240234
579.474976	1288.101685	17057.179688	17337.396484
579.817993	1265.503418	17070.738281	16781.480469
580.160950	1231.606079	16650.410156	16401.828125
580.503845	1202.228271	16352.112305	16413.128906
580.846680	1251.944458	16417.648438	16026.697266
581.189514	1238.385498	16117.090820	16236.861328
581.532349	1231.606079	15886.587891	15875.289063
581.875061	1224.826538	15956.642578	15802.974609
582.217773	1209.007813	15868.509766	15714.840820
582.560425	1383.014526	15861.730469	15938.564453
582.903076	1249.684692	15762.297852	15606.369141
583.245667	1220.306885	15687.723633	15427.842773
583.588135	1265.503418	15421.063477	15604.109375
583.930664	1233.865845	15531.794922	15314.851563
584.273071	1276.802612	15154.404297	15414.284180
584.615479	1254.204346	15174.742188	15147.624023
584.957825	1213.527466	15289.993164	15023.333984
585.300232	1283.582031	15125.026367	15109.207031
585.642517	1229.346191	14982.657227	15210.899414
585.984680	1213.527466	15095.648438	14901.303711
586.326843	1249.684692	15082.089844	15064.010742
586.669067	1267.763306	15197.340820	15125.026367
587.011230	1328.778687	15032.373047	14865.146484
587.353271	1222.566772	14860.625977	15084.349609
587.695251	1197.708618	14901.303711	15002.995117
588.037231	1193.188965	14941.980469	14910.342773
588.379211	1238.385498	15057.231445	15012.035156
588.721069	1267.763306	15109.207031	15217.678711
589.062927	1265.503418	15129.545898	15199.600586
589.404785	1315.219727	15351.008789	15303.552734
589.746582	1247.424805	15326.150391	15310.332031
590.088257	1218.047119	15484.338867	15326.150391
590.429932	1245.165039	15626.708008	15423.323242
590.771606	1231.606079	15543.094727	15599.589844
591.113220	1274.542725	15791.675781	15475.299805
591.454773	1523.123779	15809.753906	15545.354492
591.796265	1285.841919	15375.867188	15100.167969
592.137817	1279.062378	15518.236328	15179.261719
592.479248	1254.204346	15018.814453	14948.759766
592.820618	1197.708618	15030.113281	15021.074219
593.161926	1267.763306	14912.602539	14912.602539
593.503296	1220.306885	14833.508789	15140.844727
593.844604	1172.850586	15134.065430	14969.097656
594.185791	1260.983765	15317.111328	15039.152344
594.526917	1184.149658	15353.268555	15066.270508
594.868103	1337.817993	15344.229492	15441.402344
595.209229	1213.527466	15400.725586	15493.377930
595.550232	1303.920532	15800.714844	15515.976563
595.891235	1202.228271	15760.038086	15882.068359
596.232178	1220.306885	16022.177734	16162.287109
596.573181	1184.149658	16313.695313	16386.009766
596.914063	1168.330933	16756.621094	16541.937500
597.254883	1238.385498	16896.730469	16810.857422
597.595703	1333.298340	17215.367188	17091.076172
597.936462	1204.488159	17027.800781	16964.525391
598.277161	1260.983765	16932.888672	16709.166016
598.617798	1116.354858	16358.892578	16623.291016
598.958435	1175.110352	16284.317383	16121.610352
599.299072	1222.566772	15859.469727	15583.771484
599.639587	1288.101685	15258.356445	15274.174805
599.980103	1242.905151	15174.742188	14923.901367
600.320557	1360.416260	14664.021484	14682.099609
600.661072	1292.621338	14551.030273	14501.313477
601.001404	1324.259033	14361.204102	14363.463867
601.341675	1272.282959	14451.597656	14318.267578
601.681946	1231.606079	14203.016602	14146.520508
602.022278	1285.841919	14119.403320	14153.300781
602.362427	1238.385498	14209.795898	14245.953125
602.702576	1251.944458	14433.518555	14318.267578
603.042725	1249.684692	14688.879883	14557.809570
603.382813	1306.180420	15228.978516	14993.956055
603.722839	1355.896606	15760.038086	15341.969727
604.062805	1308.440186	15954.382813	15396.205078
604.402771	1507.305054	16365.671875	16431.207031
604.742737	1360.416260	16397.308594	16539.677734
605.082581	1242.905151	16659.449219	16749.841797
605.422363	1231.606079	16880.912109	16987.125000
605.762146	1258.723999	17009.722656	16858.314453
606.101929	1227.086426	16761.140625	16878.652344
606.441589	1260.983765	16392.789063	16517.080078
606.781189	1202.228271	16309.175781	15961.162109
607.120850	1283.582031	15807.494141	15604.109375
607.460388	1303.920532	15188.301758	14991.696289
607.799927	1238.385498	15079.830078	14905.823242
608.139404	1260.983765	14856.106445	14960.058594
608.478821	1231.606079	14740.855469	14641.422852
608.818298	1251.944458	14847.067383	14722.777344
609.157593	1251.944458	14964.578125	14912.602539
609.496887	1337.817993	14989.436523	15021.074219
609.836182	1186.409546	15312.591797	15497.897461
610.175415	1220.306885	15301.292969	15443.662109
610.514526	1362.676025	15570.211914	15335.190430
610.853699	1276.802612	15201.860352	15351.008789
611.192688	1285.841919	15111.466797	15192.821289
611.531799	1188.669312	14749.894531	14806.390625
611.870850	1299.400879	14573.627930	14616.565430
612.209778	1279.062378	14114.882813	14257.251953
612.548645	1303.920532	13712.633789	13789.467773
612.887573	1310.700073	13726.193359	13592.863281
613.226440	1270.023071	13615.460938	13412.077148
613.565186	1213.527466	13158.976563	13262.928711
613.903931	1263.243652	13213.211914	13199.653320
614.242676	1279.062378	12948.812500	12788.364258
614.581360	1360.416260	12833.560547	12725.088867
614.919983	1247.424805	12709.270508	12605.318359
615.258484	1328.778687	12537.523438	12564.641602
615.597046	1294.881226	12426.791992	12435.831055
615.935547	1254.204346	12352.217773	12422.272461
616.273987	1175.110352	12501.366211	12257.304688
616.612366	1315.219727	12553.342773	12395.154297
616.950806	1256.464111	12297.981445	12071.999023
617.289124	1270.023071	12530.744141	12426.791992
617.627380	1247.424805	12368.036133	12291.202148
617.965515	1315.219727	12395.154297	12510.405273
618.303772	1340.077759	12397.414063	12334.138672
618.641968	1294.881226	12327.359375	12331.878906
618.980042	1272.282959	12225.666992	12397.414063
619.318054	1267.763306	12250.525391	12343.178711
619.656128	1349.117065	12286.682617	12451.650391
619.994080	1170.590698	12053.920898	12076.518555
620.331970	1297.140991	12316.060547	12370.295898
620.669861	1258.723999	12386.115234	12178.210938
621.007751	1184.149658	11965.787109	11938.668945
621.345581	1242.905151	12105.896484	12067.479492
621.683289	1233.865845	12252.785156	12221.147461
622.020996	1265.503418	12099.117188	12252.785156
622.358704	1281.322266	12042.621094	11986.125977
622.696350	1242.905151	11803.080078	11816.638672
623.033875	1274.542725	11805.339844	11873.134766
623.371460	1218.047119	11764.662109	11931.889648
623.708984	1306.180420	11968.046875	11721.725586
624.046448	1276.802612	11940.928711	11861.834961
624.383789	1312.959839	11961.267578	11902.511719
624.721191	1231.606079	12056.180664	11834.716797
625.058533	1154.771851	11902.511719	11816.638672
625.395813	1254.204346	11895.732422	12081.038086
625.733032	1256.464111	12067.479492	12117.195313
626.070190	1249.684692	12273.124023	12081.038086
626.407410	1326.518799	12573.680664	12410.973633
626.744507	1321.999146	12499.106445	12451.650391
627.081543	1263.243652	12553.342773	12743.167969
627.418518	1245.165039	12966.890625	12890.056641
627.755554	1209.007813	12987.229492	12709.270508
628.092529	1294.881226	12856.159180	12987.229492
628.429382	1242.905151	12885.537109	12946.552734
628.766174	1351.376953	12562.381836	12756.726563
629.103027	1312.959839	12612.097656	12596.279297
629.439819	1272.282959	12417.752930	12010.983398
629.776489	1306.180420	12356.737305	12175.951172
630.113159	1222.566772	12051.661133	12053.920898
630.449829	1227.086426	11965.787109	11866.354492
630.786377	1238.385498	11653.930664	11846.016602
631.122925	1306.180420	11773.702148	11945.449219
631.459412	1260.983765	11536.419922	11622.292969
631.795898	1254.204346	11498.002930	11446.027344
632.132324	1199.968506	11366.932617	11222.303711
632.468689	1272.282959	11120.611328	11168.068359
632.804993	1267.763306	11265.240234	10872.030273
633.141296	1213.527466	10966.943359	10978.242188
633.477539	1231.606079	11070.895508	11102.533203
633.813721	1233.865845	11145.469727	10896.888672
634.149841	1263.243652	11344.334961	10969.203125
634.485962	1319.739380	10957.904297	11172.587891
634.822083	1290.361572	11147.729492	11041.517578
635.158020	1349.117065	10853.952148	10655.086914
635.494019	1303.920532	11030.218750	10650.567383
635.829956	1251.944458	10704.803711	10759.039063
636.165894	1233.865845	10566.954102	10607.630859
636.501709	1340.077759	10933.045898	10505.938477
636.837463	1267.763306	10469.781250	10474.300781
637.173279	1260.983765	10293.514648	10316.113281
637.509033	1249.684692	10119.507813	10309.333984
637.844666	1227.086426	10164.705078	10004.256836
638.180237	1299.400879	10155.665039	10438.143555
638.515869	1211.267578	9875.446289	10001.997070
638.851440	1159.291626	10076.571289	9742.117188
639.186890	1290.361572	9918.383789	9701.440430
639.522339	1193.188965	9791.833008	9764.714844
639.857727	1238.385498	9757.935547	9685.621094
640.193176	1373.975220	9690.140625	9690.140625
640.528442	1251.944458	9656.243164	9292.411133
640.863708	1254.204346	9561.331055	9468.677734
641.198914	1260.983765	9470.937500	9425.741211
641.534180	1249.684692	9407.662109	9414.441406
641.869263	1238.385498	9502.575195	9518.393555
642.204346	1301.660645	9039.310547	9247.214844
642.539368	1290.361572	9138.743164	9220.096680
642.874390	1227.086426	9208.797852	9287.891602
643.209412	1188.669312	9256.253906	9159.081055
643.544312	1281.322266	9125.183594	9195.238281
643.879150	1222.566772	9068.688477	8978.294922
644.213989	1285.841919	9188.458984	8964.736328
644.548828	1315.219727	9028.011719	8944.397461
644.883545	1292.621338	8957.957031	8826.886719
645.218262	1231.606079	8856.264648	8693.556641
645.552856	1360.416260	8878.862305	8856.264648
645.887573	1306.180420	8980.554688	8971.515625
646.222107	1224.826538	8682.257813	8973.775391
646.556580	1209.007813	8971.515625	8844.964844
646.891113	1254.204346	8865.303711	8910.500000
647.225586	1267.763306	8885.642578	8933.098633
647.559937	1215.787231	8763.611328	8942.137695
647.894226	1224.826538	8831.406250	8955.697266
648.228577	1378.494873	9229.135742	9037.050781
648.562927	1251.944458	8944.397461	8905.980469
648.897095	1306.180420	8854.004883	8996.374023
649.231262	1229.346191	8863.043945	8756.832031
649.565430	1256.464111	8998.633789	9016.711914
649.899475	1218.047119	8831.406250	8756.832031
650.233521	1283.582031	8971.515625	8917.279297
650.567505	1229.346191	8808.807617	8725.194336
650.901428	1242.905151	9129.703125	8643.840820
651.235413	1206.747925	8838.185547	8786.209961
651.569275	1242.905151	8677.738281	8770.390625
651.903015	1394.313599	9003.153320	8915.019531
652.236816	1152.512085	8842.705078	8641.581055
652.570618	1245.165039	8876.602539	8707.116211
652.904297	1308.440186	8679.998047	8720.674805
653.237915	1245.165039	8460.794922	8799.768555
653.571533	1251.944458	8768.130859	8718.415039
653.905090	1231.606079	8754.572266	8515.030273
654.238586	1283.582031	8553.447266	8512.770508
654.572021	1260.983765	8255.150391	8431.416992
654.905457	1283.582031	8481.132813	8533.109375
655.238892	1319.739380	8533.109375	8372.661133
655.572144	1292.621338	8519.549805	8411.078125
655.905457	1222.566772	8239.331055	8386.220703
656.238708	1256.464111	8291.307617	8212.213867
656.571960	1233.865845	8298.086914	8399.779297
656.905090	1254.204346	8171.536621	8264.189453
657.238159	1249.684692	8286.788086	8300.346680
657.571289	1301.660645	8539.888672	8564.747070
657.904358	1317.479492	8460.794922	8325.205078
658.237305	1283.582031	8354.583008	8383.959961
658.570190	1209.007813	8603.164063	8704.856445
658.903076	1256.464111	8953.436523	8808.807617
659.236023	1342.337646	9003.153320	8935.358398
659.568787	1209.007813	9057.388672	9066.428711
659.901428	1265.503418	9258.513672	9437.040039
660.234192	1181.889893	9276.592773	9251.734375
660.566895	1209.007813	9468.677734	9486.755859
660.899536	1279.062378	9423.481445	9335.347656
661.232056	1256.464111	9197.498047	9147.782227
661.564636	1299.400879	9021.231445	9111.625000
661.897156	1188.669312	8910.500000	8973.775391
662.229553	1224.826538	8935.358398	8802.028320
662.561951	1222.566772	8652.879883	8438.196289
662.894287	1319.739380	8539.888672	8637.061523
663.226685	1231.606079	8295.827148	8252.890625
663.558899	1227.086426	8280.008789	8325.205078
663.891052	1179.630005	8137.639160	8024.647949
664.223328	1245.165039	7993.010254	7943.293945
664.555420	1240.645386	7977.191406	7771.547363
664.887512	1206.747925	8051.765625	7920.695801
665.219543	1256.464111	7857.420410	7873.239258
665.551575	1349.117065	7724.090820	7834.822266
665.883545	1299.400879	7604.319824	7541.044922
666.215454	1213.527466	7626.917969	7606.579590
666.547302	1204.488159	7577.202148	7475.509766
666.879150	1335.558105	7767.027344	7769.287109
667.210938	1331.038452	7782.846191	7611.099609
667.542664	1276.802612	7751.208496	7556.863770
667.874268	1288.101685	7470.990234	7638.217285
668.205994	1270.023071	7574.942383	7586.241211
668.537537	1394.313599	7617.878906	7642.736816
668.869080	1294.881226	7480.029297	7593.020996
669.200562	1170.590698	7550.083984	7622.398438
669.532043	1195.448853	7550.083984	7583.981445
669.863525	1324.259033	7631.437988	7755.728516
670.194824	1274.542725	7620.138672	7543.304688
670.526184	1161.551392	7552.343750	7597.540527
670.857483	1260.983765	7475.509766	7529.745605
671.188660	1315.219727	7294.723633	7642.736816
671.519897	1184.149658	7547.824219	7373.817383
671.851013	1215.787231	7292.463867	7306.022461
672.182129	1227.086426	7498.107910	7299.243164
672.513184	1258.723999	7147.834961	7165.913574
672.844238	1344.597412	7357.998535	7355.738770
673.175171	1270.023071	7206.590332	7141.055176
673.506104	1292.621338	7353.479004	7301.502930
673.836975	1281.322266	7249.526855	7258.566406
674.167786	1242.905151	7080.040039	7118.457031
674.498596	1204.488159	7163.653320	7183.992188
674.829407	1222.566772	7052.921875	7247.267090
675.160034	1242.905151	7127.496094	7032.583496
675.490723	1274.542725	6987.387207	6930.891113
675.821289	1231.606079	6921.852051	7100.378418
676.151917	1211.267578	6890.214355	6903.773438
676.482422	1238.385498	6856.316895	7032.583496
676.812927	1267.763306	6903.773438	6874.395508
677.143311	1213.527466	7050.662109	6994.166504
677.473694	1251.944458	6955.749512	6915.072266
677.804016	1199.968506	7068.740723	6894.733887
678.134338	1238.385498	6980.607422	6978.347656
678.464539	1220.306885	7019.024414	7014.504883
678.794800	1249.684692	7064.221191	7050.662109
679.124878	1267.763306	7059.701660	6973.828125
679.455078	1299.400879	7030.323730	7118.457031
679.785095	1240.645386	7344.439941	7086.819336
680.115173	1245.165039	7389.636230	7170.433105
680.445129	1308.440186	7274.385254	7360.258301
680.775024	1297.140991	7414.494629	7400.935547
681.104919	1240.645386	7482.289063	7428.053223
681.434814	1195.448853	7326.361328	7396.416016
681.764526	1175.110352	7455.171387	7414.494629
682.094360	1229.346191	7405.455078	7495.848145
682.424011	1254.204346	7520.706055	7525.226074
682.753723	1355.896606	7502.627441	7398.675781
683.083313	1197.708618	7258.566406	7357.998535
683.412903	1265.503418	7522.966309	7217.889160
683.742432	1258.723999	7301.502930	7272.125488
684.071899	1238.385498	7272.125488	7177.212402
684.401306	1231.606079	7188.511719	7098.118652
684.730713	1245.165039	7057.441406	6831.458984
685.060059	1294.881226	6939.930664	6935.411133
685.389404	1245.165039	6831.458984	6802.081055
685.718628	1245.165039	6704.908691	6711.687988
686.047852	1242.905151	6589.657227	6790.781738
686.376953	1276.802612	6863.096680	6840.498047
686.706116	1303.920532	6732.026367	6786.262207
687.035156	1256.464111	6555.759766	6435.989258
687.364197	1258.723999	6707.168457	6759.144531
687.693176	1272.282959	6463.106934	6707.168457
688.022156	1285.841919	6743.325684	6750.104980
688.351013	1229.346191	6657.452148	6655.192383
688.679871	1263.243652	6707.168457	6700.388672
689.008606	1267.763306	6869.875977	6765.923828
689.337402	1204.488159	6768.183594	6598.696777
689.666138	1197.708618	6682.310059	6438.249023
689.994751	1199.968506	6424.689941	6648.412598
690.323364	1188.669312	6487.964844	6408.871094
690.651917	1242.905151	6332.037109	6329.777344
690.980469	1321.999146	6417.910645	6510.563477
691.308960	1204.488159	6142.211426	6110.573730
691.637451	1279.062378	6397.571777	6210.006348
691.965759	1292.621338	6178.368652	6219.045410
692.294128	1240.645386	5997.582520	6051.818359
692.622437	1175.110352	5959.165527	5952.385742
692.950684	1315.219727	5936.567383	5961.425293
693.278870	1213.527466	5923.008301	5920.748535
693.607117	1254.204346	5861.992676	5895.890137
693.935120	1233.865845	5810.016602	5823.575684
694.263245	1227.086426	5685.726074	5764.820313
694.591248	1288.101685	5904.929688	5699.285156
694.919250	1249.684692	5875.551758	5742.222168
695.247192	1240.645386	5697.025391	5606.632324
695.575073	1328.778687	5762.560547	5807.756836
695.902893	1177.370239	5823.575684	5647.309082
696.230774	1199.968506	5776.119141	5624.710938
696.558411	1303.920532	5837.134766	5972.724609
696.886169	1301.660645	5805.497070	5769.339844
697.213806	1254.204346	5895.890137	5812.276855
697.541443	1290.361572	5999.842285	6085.715820
697.869019	1265.503418	6210.006348	6092.495117
698.196533	1308.440186	6083.456055	6139.951660
698.524048	1270.023071	6356.895020	6377.233398
698.851501	1285.841919	6802.081055	6515.083008
699.178772	1290.361572	6784.002441	6727.506836
699.506226	1247.424805	6883.435059	6915.072266
699.833435	1288.101685	6847.277832	6942.190430
700.160767	1240.645386	7046.142578	6788.521973
700.487915	1231.606079	6845.018066	6768.183594
700.815063	1127.653931	6614.515625	6594.176758
701.142151	1202.228271	6506.043457	6476.666016
701.469238	1245.165039	6539.940918	6506.043457
701.796265	1231.606079	6388.532715	6347.855957
702.123230	1337.817993	6426.949707	6169.329590
702.450134	1254.204346	6099.274902	5995.322754
702.777039	1299.400879	5843.914063	5868.772461
703.103882	1281.322266	5746.741699	5649.568848
703.430664	1292.621338	5719.623535	5516.239258
703.757385	1283.582031	5611.151855	5471.042480
704.084106	1218.047119	5439.405273	5312.854492
704.410767	1177.370239	5254.099121	5236.020508
704.737366	1281.322266	5188.563965	5231.500977
705.063904	1378.494873	5342.232422	5339.972656
705.390442	1242.905151	5116.249512	5251.839355
705.716919	1233.865845	5147.887207	5127.548828
706.043396	1299.400879	5073.312988	5222.461426
706.369690	1242.905151	5111.729980	5073.312988
706.696106	1267.763306	5159.186523	5147.887207
707.022278	1258.723999	5057.494141	5150.146973
707.348633	1236.125732	5143.367676	5102.690918
707.674805	1254.204346	5150.146973	5265.398438
708.000916	1283.582031	5118.509766	5161.446289
708.327026	1202.228271	5055.234375	4996.479004
708.653076	1240.645386	4867.668457	5052.974609
708.979065	1197.708618	5152.406738	5208.902832
709.305054	1236.125732	5052.974609	5034.895996
709.630920	1204.488159	5025.856445	5068.793457
709.956787	1154.771851	5147.887207	5154.666992
710.282593	1272.282959	5034.895996	5089.131836
710.608459	1190.929199	5197.603516	5084.612305
710.934082	1170.590698	5215.682129	5256.358887
711.259827	1292.621338	5249.579590	5308.334961
711.585449	1265.503418	5437.145020	5168.225586
711.911072	1331.038452	5425.846191	5414.546875
712.236572	1177.370239	5412.287109	5258.618652
712.562073	1272.282959	5495.900879	5538.837402
712.887512	1260.983765	5285.736816	5303.815430
713.213013	1272.282959	5265.398438	5412.287109
713.538330	1281.322266	5358.051270	5326.413574
713.863647	1184.149658	5107.210449	5211.162598
714.188904	1265.503418	5202.123047	5206.642578
714.514099	1238.385498	5041.675293	5217.941895
714.839294	1260.983765	5095.911133	5154.666992
715.164490	1276.802612	5109.470215	5193.083984
715.489502	1360.416260	5240.540039	5199.863281
715.814575	1279.062378	5145.627441	5109.470215
716.139526	1351.376953	5050.714844	5005.518066
716.464539	1263.243652	5161.446289	5037.155762
716.789368	1231.606079	5136.588379	4926.424316
717.114258	1272.282959	5107.210449	5080.092285
717.439026	1227.086426	5077.832520	5021.336914
717.763794	1206.747925	4921.904785	4937.723145
718.088440	1247.424805	4863.148926	4933.203613
718.413208	1218.047119	4777.275391	4955.801758
718.737793	1306.180420	4826.991699	4793.094238
719.062378	1335.558105	4772.755859	4860.889160
719.386841	1258.723999	4675.583496	4598.749023
719.711304	1229.346191	4580.670410	4537.733887
720.035767	1168.330933	4619.087402	4521.915039
720.360168	1227.086426	4578.410645	4494.797363
720.684570	1290.361572	4587.450195	4386.325195
721.008789	1306.180420	4506.096191	4594.229492
721.333069	1315.219727	4460.899902	4422.482422
721.657227	1143.472778	4404.403809	4375.026367
721.981445	1211.267578	4334.349121	4316.270508
722.305481	1281.322266	4332.089355	4302.711914
722.629578	1204.488159	4262.034668	4365.986816
722.953552	1193.188965	4298.191895	4250.735840
723.277588	1324.259033	4273.333984	4212.318848
723.601440	1220.306885	4180.681152	4341.128906
723.925354	1245.165039	4264.294922	4076.729004
724.249146	1231.606079	4354.687988	4300.452148
724.572937	1276.802612	4257.515137	4277.853516
724.896667	1263.243652	4291.412598	4302.711914
725.220398	1213.527466	4343.388672	4180.681152
725.543945	1251.944458	4262.034668	4212.318848
725.867615	1202.228271	4323.050293	4271.074219
726.191101	1231.606079	4237.176758	4289.152832
726.514648	1274.542725	4460.899902	4212.318848
726.838074	1249.684692	4347.908203	4393.104980
727.161499	1213.527466	4232.657227	4325.310059
727.484863	1258.723999	4329.829590	4341.128906
727.808228	1297.140991	4515.135742	4517.395508
728.131470	1251.944458	4402.144043	4503.836426
728.454712	1236.125732	4521.915039	4411.183594
728.777832	1254.204346	4519.655273	4481.238281
729.101013	1231.606079	4474.458496	4336.609375
729.424011	1371.715332	4542.253418	4478.978516
729.747070	1260.983765	4494.797363	4490.277344
730.070068	1342.337646	4384.065430	4573.891113
730.393005	1308.440186	4456.379883	4411.183594
730.715881	1319.739380	4449.600586	4393.104980
731.038757	1199.968506	4429.262207	4417.962891
731.361572	1204.488159	4438.301270	4329.829590
731.684326	1267.763306	4323.050293	4445.081055
732.007019	1276.802612	4601.008789	4314.010742
732.329712	1276.802612	4596.489258	4524.174805
732.652283	1233.865845	4379.545898	4467.679199
732.974854	1254.204346	4589.709961	4447.340820
733.297363	1222.566772	4616.827637	4517.395508
733.619873	1317.479492	4469.938965	4395.364746
733.942261	1238.385498	4488.017578	4406.664063
734.264648	1272.282959	4451.860352	4494.797363
734.586975	1231.606079	4381.805664	4354.687988
734.909302	1188.669312	4336.609375	4286.893066
735.231506	1161.551392	4311.750977	4472.198730
735.553711	1199.968506	4277.853516	4332.089355
735.875854	1328.778687	4248.476074	4282.373535
736.197937	1222.566772	4201.019531	4112.886230
736.519958	1157.031738	4173.901367	4155.822754
736.841980	1265.503418	4130.964844	4101.586914
737.163940	1202.228271	3923.060791	4022.493164
737.485840	1299.400879	4110.626465	3961.477783
737.807678	1227.086426	4011.194092	4067.689697
738.129517	1229.346191	3972.776855	3932.100098
738.451233	1281.322266	4097.067383	4083.508545
738.773010	1227.086426	3979.556396	3893.682861
739.094666	1224.826538	4081.248779	4106.106934
739.416260	1310.700073	4178.421387	4250.735840
739.737854	1290.361572	4081.248779	4151.303223
740.059448	1202.228271	4092.547852	4099.327148
740.380859	1163.811279	4051.870850	3988.595703
740.702332	1220.306885	4036.052002	3981.816162
741.023682	1186.409546	4040.571777	4038.312012
741.345032	1218.047119	4045.091309	4015.713623
741.666321	1265.503418	3916.281250	4049.611084
741.987549	1229.346191	3882.383789	3943.399170
742.308777	1303.920532	3929.840332	3941.139404
742.629944	1272.282959	3864.305176	3877.864258
742.950989	1383.014526	3850.746338	3895.942871
743.272095	1317.479492	3694.818115	3627.023438
743.593140	1333.298340	3791.990723	3816.848877
743.914063	1231.606079	3678.999268	3710.636963
744.234985	1211.267578	3674.479736	3575.047363
744.555847	1319.739380	3694.818115	3656.401123
744.876648	1270.023071	3703.857422	3633.802734
745.197449	1254.204346	3608.944580	3511.772217
745.518188	1233.865845	3590.865967	3584.086670
745.838867	1245.165039	3627.023438	3581.826660
746.159485	1285.841919	3726.455811	3561.488281
746.480042	1218.047119	3577.307129	3475.614990
746.800537	1227.086426	3482.394287	3547.929443
747.121094	1260.983765	3611.204590	3581.826660
747.441528	1281.322266	3430.418213	3523.071289
747.761902	1188.669312	3498.213135	3529.850830
748.082275	1175.110352	3428.158447	3527.590820
748.402588	1281.322266	3566.008057	3710.636963
748.722839	1281.322266	3572.787354	3518.551514
749.043030	1247.424805	3622.503662	3434.937988
749.363159	1238.385498	3471.095215	3462.055908
749.683289	1299.400879	3552.448975	3595.385742
750.003357	1254.204346	3500.472900	3486.914063
750.323303	1231.606079	3507.252441	3473.354980
750.643311	1265.503418	3514.031982	3523.071289
750.963257	1407.872559	3692.558350	3602.165283
751.283142	1315.219727	3443.977295	3536.630127
751.602905	1229.346191	3364.883301	3398.780762
751.922729	1385.274292	3606.684814	3638.322510
752.242432	1242.905151	3371.662842	3294.828613
752.562134	1227.086426	3457.536133	3385.221680
752.881714	1233.865845	3321.946533	3269.970459
753.201355	1161.551392	3335.505615	3434.937988
753.520874	1209.007813	3328.726074	3351.324463
753.840393	1281.322266	3430.418213	3389.741455
754.159851	1288.101685	3364.883301	3392.001221
754.479248	1301.660645	3385.221680	3349.064453
754.798523	1319.739380	3396.520996	3353.584229
755.117859	1193.188965	3405.560303	3351.324463
755.437134	1251.944458	3340.025146	3308.387695
755.756348	1337.817993	3385.221680	3364.883301
756.075500	1276.802612	3312.907227	3405.560303
756.394653	1258.723999	3389.741455	3353.584229
756.713623	1227.086426	3373.922607	3326.466309
757.032654	1285.841919	3419.119141	3346.804688
757.351624	1283.582031	3333.245850	3285.789307
757.670532	1251.944458	3328.726074	3170.538086
757.989441	1209.007813	3324.206299	3208.955322
758.308289	1254.204346	3394.260986	3346.804688
758.627014	1265.503418	3353.584229	3382.961914
758.945801	1199.968506	3410.079834	3283.529541
759.264404	1290.361572	3281.269775	3317.427002
759.583130	1351.376953	3414.599609	3333.245850
759.901611	1385.274292	3502.732910	3430.418213
760.220215	1328.778687	3360.363770	3267.710693
760.538635	1346.857300	3385.221680	3516.291748
760.857117	1301.660645	3263.191162	3378.442383
761.175537	1439.510132	3550.189209	3514.031982
761.493896	1299.400879	3297.088379	3398.780762
761.812134	1321.999146	3462.055908	3333.245850
762.130432	1373.975220	3482.394287	3516.291748
762.448608	1333.298340	3378.442383	3432.678223
762.766785	1434.990479	3504.992676	3550.189209
763.084900	1335.558105	3532.110596	3437.197754
763.402954	1215.787231	3595.385742	3480.134521
763.720947	1218.047119	3692.558350	3681.259277
764.038940	1186.409546	3914.021484	3909.501709
764.356750	1279.062378	4128.705078	4214.578613
764.674683	1251.944458	4234.916992	4176.161621
764.992493	1204.488159	4361.467285	4343.388672
765.310303	1195.448853	4205.539063	4309.491211
765.627930	1190.929199	4171.641602	4280.113281
765.945679	1310.700073	4201.019531	4250.735840
766.263306	1331.038452	4060.910156	4008.934082
766.580872	1247.424805	3970.517090	3927.580322
766.898376	1312.959839	3740.014648	3749.053955
767.215881	1227.086426	3627.023438	3669.959961
767.533325	1301.660645	3511.772217	3412.339600
767.850708	1236.125732	3344.544922	3407.820068
768.168030	1220.306885	3387.481689	3396.520996
768.485352	1285.841919	3272.230469	3301.608154
768.802551	1319.739380	3263.191162	3269.970459
769.119751	1238.385498	3283.529541	3215.734619
769.436890	1263.243652	3213.474854	3172.797852
769.753967	1231.606079	3199.916016	3093.704102
770.071045	1202.228271	3163.758545	3016.869873
770.388062	1288.101685	3197.656006	3204.435547
770.704956	1265.503418	3037.208252	2946.815186
771.021912	1362.676025	3089.184326	3132.121094
771.338684	1279.062378	2894.839111	2960.374268
771.655579	1270.023071	2946.815186	2964.893799
771.972351	1340.077759	3012.350098	2940.035645
772.289063	1274.542725	2831.563965	2879.020264
772.605713	1249.684692	2928.736572	2906.138428
772.922302	1202.228271	2856.422119	2912.917725
773.238831	1263.243652	2971.673340	2858.681885
773.555420	1389.793945	2992.011719	3093.704102
773.871826	1254.204346	2863.201660	2953.594727
774.188293	1290.361572	2937.775879	2903.878418
774.504639	1335.558105	3073.365479	2955.854492
774.820984	1285.841919	2867.721191	2915.177734
775.137207	1281.322266	2849.642578	2872.240967
775.453552	1245.165039	2795.406738	2745.690430
775.769592	1236.125732	2917.437500	2813.485352
776.085815	1245.165039	2820.264893	2761.509277
776.401855	1172.850586	2756.989746	2777.328125
776.717896	1233.865845	2840.603271	2851.902344
777.033875	1267.763306	2890.319580	2930.996338
777.349854	1263.243652	2908.398193	2725.352051
777.665710	1274.542725	2671.116211	2793.146973
777.981567	1324.259033	2770.548584	2806.705811
778.297363	1233.865845	2716.312744	2786.367432
778.613098	1326.518799	2718.572510	2752.469971
778.928772	1303.920532	2808.965820	2766.029053
779.244385	1297.140991	2849.642578	2763.769287
779.559998	1301.660645	2729.871826	2838.343506
779.875488	1312.959839	2865.461426	2711.793213
780.191040	1333.298340	2750.210205	2808.965820
780.506470	1224.826538	2637.218750	2691.454590
780.821899	1251.944458	2720.832520	2738.911133
781.137207	1227.086426	2763.769287	2750.210205
781.452576	1238.385498	2603.321289	2686.935059
781.767822	1285.841919	2842.863037	2799.926514
782.083069	1224.826538	2761.509277	2695.974365
782.398193	1172.850586	2621.400146	2594.281982
782.713379	1236.125732	2675.635986	2725.352051
783.028381	1276.802612	2759.249512	2700.493896
783.343384	1224.826538	2567.164063	2607.841064
783.658386	1254.204346	2711.793213	2641.738525
783.973328	1222.566772	2693.714600	2671.116211
784.288086	1371.715332	2793.146973	2761.509277
784.602966	1272.282959	2616.880371	2521.967529
784.917725	1324.259033	2619.140137	2668.856445
785.232483	1238.385498	2524.227539	2605.581299
785.547119	1292.621338	2596.541992	2641.738525
785.861755	1319.739380	2643.998291	2582.982910
786.176270	1240.645386	2512.928223	2537.786377
786.490845	1222.566772	2569.424072	2544.565918
786.805298	1220.306885	2420.275391	2436.094238
787.119751	1290.361572	2623.659912	2664.336670
787.434143	1263.243652	2648.518066	2531.006836
787.748474	1220.306885	2582.982910	2598.801758
788.062744	1310.700073	2580.723145	2646.258057
788.377014	1202.228271	2596.541992	2605.581299
788.691162	1238.385498	2601.061523	2621.400146
789.005310	1326.518799	2673.375977	2750.210205
789.319397	1245.165039	2551.345459	2589.762451
789.633423	1224.826538	2727.611816	2659.817139
789.947449	1367.195679	2653.037598	2827.044434
790.261414	1294.881226	2691.454590	2632.699219
790.575256	1290.361572	2560.384766	2605.581299
790.889160	1263.243652	2621.400146	2729.871826
791.202881	1270.023071	2607.841064	2580.723145
791.516663	1260.983765	2499.369385	2653.037598
791.830322	1251.944458	2544.565918	2515.188232
792.144043	1274.542725	2479.031006	2469.991699
792.457581	1288.101685	2533.266846	2560.384766
792.771118	1202.228271	2524.227539	2494.849609
793.084656	1403.352905	2632.699219	2515.188232
793.398071	1310.700073	2485.810303	2465.471924
793.711487	1190.929199	2336.661865	2406.716309
794.024841	1222.566772	2366.039551	2458.692383
794.338135	1233.865845	2395.417236	2451.912842
794.651428	1215.787231	2354.740479	2436.094238
794.964600	1321.999146	2429.314697	2555.864990
795.277771	1190.929199	2465.471924	2463.212158
795.590881	1211.267578	2483.550537	2429.314697
795.903931	1328.778687	2492.589844	2594.281982
796.216980	1240.645386	2393.157471	2418.015625
796.529907	1263.243652	2436.094238	2601.061523
796.842834	1222.566772	2413.495850	2406.716309
797.155701	1231.606079	2503.888916	2472.251465
797.468506	1263.243652	2558.124756	2603.321289
797.781250	1283.582031	2413.495850	2494.849609
798.093994	1242.905151	2456.432617	2508.408691
798.406677	1251.944458	2442.873535	2481.290771
798.719238	1301.660645	2415.755615	2451.912842
799.031921	1215.787231	2458.692383	2408.976318
799.344360	1220.306885	2406.716309	2494.849609
799.656860	1276.802612	2422.535156	2456.432617
799.969299	1197.708618	2368.299316	2359.260010
800.281677	1292.621338	2420.275391	2277.906250
800.593933	1211.267578	2277.906250	2230.449951
800.906250	1204.488159	2386.377930	2216.890869
801.218445	1297.140991	2316.323242	2338.921631
801.530640	1290.361572	2327.622559	2248.528564
801.842712	1188.669312	2336.661865	2311.803711
802.154846	1224.826538	2282.425781	2336.661865
802.466797	1251.944458	2264.347168	2225.930176
802.778870	1247.424805	2327.622559	2225.930176
803.090759	1218.047119	2273.386475	2262.087402
803.402649	1233.865845	2305.024170	2228.189941
803.714478	1245.165039	2178.473877	2286.945557
804.026245	1337.817993	2248.528564	2237.229248
804.337952	1206.747925	2273.386475	2298.244629
804.649658	1270.023071	2368.299316	2210.111328
804.961243	1283.582031	2275.646484	2253.048096
805.272888	1272.282959	2302.764404	2246.268555
805.584412	1229.346191	2264.347168	2198.812256
805.895874	1283.582031	2244.008789	2192.032715
806.207336	1297.140991	2253.048096	2277.906250
806.518677	1204.488159	2300.504395	2280.166016
806.830017	1240.645386	2277.906250	2286.945557
807.141357	1197.708618	2357.000244	2262.087402
807.452576	1272.282959	2289.205322	2302.764404
807.763733	1306.180420	2277.906250	2291.465088
808.074890	1222.566772	2246.268555	2295.984863
808.385925	1344.597412	2422.535156	2298.244629
808.697021	1251.944458	2273.386475	2253.048096
809.007935	1308.440186	2350.220703	2372.819092
809.318909	1310.700073	2341.181396	2293.725098
809.629822	1247.424805	2253.048096	2230.449951
809.940674	1238.385498	2099.379883	2153.615723
810.251404	1263.243652	2225.930176	2173.954102
810.562195	1360.416260	2280.166016	2255.307861
810.872864	1143.472778	2198.812256	2063.222656
811.183533	1310.700073	2135.537109	2255.307861
811.494080	1254.204346	2126.497803	2162.655029
811.804626	1256.464111	2119.718262	2124.238037
812.115112	1181.889893	2072.261963	2092.600342
812.425598	1188.669312	2117.458496	2164.914795
812.735962	1202.228271	2083.561035	2060.962891
813.046326	1247.424805	2065.482422	2101.639648
813.356628	1362.676025	2074.521729	2194.292725
813.666870	1199.968506	2097.120117	2065.482422
813.976990	1231.606079	2054.183350	2119.718262
814.287170	1168.330933	2137.796875	2020.285889
814.597290	1310.700073	2142.316650	2155.875488
814.907349	1242.905151	2083.561035	2031.585083
815.217346	1369.455566	2250.788330	2277.906250
815.527283	1242.905151	2101.639648	2108.419189
815.837158	1242.905151	2124.238037	2070.002197
816.147034	1263.243652	2126.497803	2173.954102
816.456787	1294.881226	2103.899414	2142.316650
816.766541	1288.101685	2119.718262	2108.419189
817.076233	1360.416260	2216.890869	2101.639648
817.385925	1342.337646	2142.316650	2121.978027
817.695496	1468.887939	2302.764404	2257.567871
818.005066	1319.739380	2128.757568	2042.884155
818.314514	1321.999146	2101.639648	2192.032715
818.623962	1247.424805	2088.080811	2038.364502
818.933350	1238.385498	2187.513184	2106.159424
819.242737	1369.455566	2203.332031	2230.449951
819.552002	1312.959839	2056.443115	2070.002197
819.861328	1342.337646	2194.292725	2280.166016
820.170471	1231.606079	2178.473877	2273.386475
820.479675	1308.440186	2311.803711	2300.504395
820.788696	1360.416260	2370.559082	2325.362549
821.097839	1267.763306	2347.960938	2422.535156
821.406738	1337.817993	2549.085449	2625.919678
821.715698	1218.047119	2623.659912	2531.006836
822.024597	1276.802612	2838.343506	2806.705811
822.333435	1274.542725	3491.433594	3373.922607
822.642273	1233.865845	4155.822754	4275.593750
822.950989	1306.180420	5116.249512	5240.540039
823.259705	1270.023071	5920.748535	6045.039063
823.568359	1283.582031	6431.469238	6478.925781
823.876953	1267.763306	7071.000488	6967.048340
824.185486	1247.424805	7073.260254	7084.559570
824.494019	1168.330933	6930.891113	6822.419434
824.802429	1245.165039	6433.729004	6402.091797
825.110840	1224.826538	5660.868164	5690.246094
825.419189	1285.841919	5095.911133	5177.265137
825.727478	1224.826538	4662.024414	4890.267090
826.035767	1222.566772	4535.474121	4404.403809
826.343933	1215.787231	4298.191895	4171.641602
826.652100	1240.645386	4060.910156	4015.713623
826.960144	1272.282959	3721.936035	3882.383789
827.268250	1227.086426	3764.872803	3674.479736
827.576233	1351.376953	3828.147949	3911.761719
827.884155	1263.243652	3837.187256	3914.021484
828.192017	1294.881226	3984.076172	4040.571777
828.499878	1238.385498	3943.399170	3979.556396
828.807678	1240.645386	3877.864258	3767.132568
829.115479	1247.424805	3918.541016	3880.124023
829.423096	1292.621338	3706.117188	3656.401123
829.730835	1251.944458	3511.772217	3529.850830
830.038330	1274.542725	3136.640625	3199.916016
830.345947	1249.684692	3037.208252	3001.051025
830.653442	1276.802612	2804.446045	2833.823730
830.960876	1288.101685	2634.958984	2689.194824
831.268250	1294.881226	2662.076904	2605.581299
831.575623	1147.992432	2494.849609	2506.148926
831.882874	1188.669312	2420.275391	2415.755615
832.190125	1233.865845	2289.205322	2286.945557
832.497314	1294.881226	2280.166016	2323.102783
832.804504	1385.274292	2232.709717	2277.906250
833.111572	1251.944458	2115.198730	2194.292725
833.418640	1292.621338	2300.504395	2232.709717
833.725586	1355.896606	2230.449951	2354.740479
834.032532	1231.606079	2352.480469	2381.858398
834.339417	1326.518799	2650.777832	2519.707764
834.646301	1299.400879	2648.518066	2578.463379
834.953003	1428.211060	2863.201660	2797.666504
835.259827	1267.763306	2804.446045	2874.500732
835.566467	1279.062378	2921.957031	2928.736572
835.873108	1310.700073	2912.917725	2987.492188
836.179688	1184.149658	2795.406738	2720.832520
836.486267	1222.566772	2675.635986	2664.336670
836.792664	1306.180420	2533.266846	2472.251465
837.099121	1197.708618	2454.172852	2442.873535
837.405518	1310.700073	2415.755615	2472.251465
837.711792	1279.062378	2320.843018	2286.945557
838.018127	1218.047119	2291.465088	2225.930176
838.324341	1233.865845	2259.827637	2241.749023
838.630554	1308.440186	2128.757568	2008.986694
838.936646	1177.370239	2045.144043	1938.932129
839.242737	1319.739380	2079.041504	2060.962891
839.548767	1319.739380	2072.261963	2047.403809
839.854797	1328.778687	1975.089355	1961.530396
840.160645	1274.542725	1889.215942	1936.672241
840.466553	1163.811279	1875.656860	1909.554321
840.772400	1233.865845	1977.349121	2018.026001
841.078186	1294.881226	2029.325195	2051.923584
841.383850	1263.243652	1984.128662	1959.270508
841.689575	1283.582031	1920.853516	1905.034668
841.995178	1245.165039	2024.805542	1950.231201
842.300781	1324.259033	1943.451782	2011.246582
842.606262	1270.023071	1950.231201	1986.388428
842.911743	1251.944458	1880.176514	1945.711548
843.217163	1247.424805	1864.357788	1828.200562
843.522583	1227.086426	1846.279175	1755.886108
843.827881	1242.905151	1769.445068	1855.318481
844.133179	1204.488159	1819.161255	1762.665527
844.438354	1279.062378	1803.342407	1746.846802
844.743530	1222.566772	1866.617554	1764.925415
845.048645	1319.739380	1821.421021	1810.121948
845.353760	1211.267578	1721.988647	1801.082642
845.658752	1340.077759	1891.475708	1805.602295
845.963745	1337.817993	1839.499634	1780.744141
846.268555	1179.630005	1746.846802	1615.776733
846.573486	1202.228271	1642.894653	1660.973267
846.878296	1414.652100	1783.004028	1780.744141
847.183044	1251.944458	1697.130493	1679.051880
847.487732	1251.944458	1631.595581	1631.595581
847.792419	1360.416260	1642.894653	1638.375000
848.097046	1285.841919	1694.870728	1663.233154
848.401611	1285.841919	1624.816040	1606.737427
848.706055	1272.282959	1681.311768	1615.776733
849.010559	1247.424805	1656.453613	1622.556274
849.314941	1247.424805	1631.595581	1674.532227
849.619324	1310.700073	1584.139160	1577.359619
849.923584	1242.905151	1604.477661	1579.619507
850.227844	1209.007813	1572.839966	1570.580200
850.532043	1181.889893	1514.084473	1577.359619
850.836243	1301.660645	1627.075928	1586.398926
851.140320	1190.929199	1579.619507	1631.595581
851.444397	1285.841919	1679.051880	1509.564819
851.748352	1270.023071	1516.344360	1597.698120
852.052307	1285.841919	1577.359619	1665.492920
852.356140	1249.684692	1545.722046	1586.398926
852.660095	1335.558105	1566.060547	1618.036621
852.963806	1321.999146	1654.193848	1674.532227
853.267578	1486.966553	1828.200562	1873.397095
853.571228	1360.416260	1629.335693	1690.351074
853.874939	1301.660645	1688.091187	1581.879272
854.178467	1265.503418	1590.918701	1613.516968
854.482056	1251.944458	1611.257080	1611.257080
854.785461	1292.621338	1640.634888	1613.516968
855.088989	1321.999146	1606.737427	1595.438354
855.392273	1240.645386	1554.761353	1572.839966
855.695679	1224.826538	1599.958008	1694.870728
855.998901	1414.652100	1676.792114	1712.949341
856.302185	1281.322266	1545.722046	1527.643433
856.605286	1410.132446	1615.776733	1629.335693
856.908508	1276.802612	1507.305054	1518.604126
857.211548	1276.802612	1516.344360	1532.163086
857.514587	1227.086426	1529.903320	1536.682739
857.817566	1206.747925	1527.643433	1509.564819
858.120483	1265.503418	1538.942627	1618.036621
858.423340	1231.606079	1608.997314	1577.359619
858.726196	1218.047119	1561.540894	1586.398926
859.028931	1290.361572	1615.776733	1663.233154
859.331665	1193.188965	1498.265747	1541.202393
859.634277	1281.322266	1620.296387	1550.241699
859.936890	1224.826538	1491.486206	1577.359619
860.239441	1258.723999	1581.879272	1541.202393
860.541992	1317.479492	1627.075928	1514.084473
860.844421	1285.841919	1557.021240	1489.226440
861.146912	1290.361572	1550.241699	1509.564819
861.449219	1274.542725	1523.123779	1464.368286
861.751526	1256.464111	1566.060547	1658.713501
862.053772	1312.959839	1649.674194	1638.375000
862.355957	1403.352905	1645.154541	1618.036621
862.658081	1283.582031	1654.193848	1561.540894
862.960266	1240.645386	1516.344360	1419.171753
863.262207	1222.566772	1593.178467	1606.737427
863.564331	1346.857300	1604.477661	1683.571533
863.866211	1229.346191	1484.706787	1527.643433
864.168091	1186.409546	1581.879272	1464.368286
864.469910	1197.708618	1579.619507	1459.848633
864.771729	1247.424805	1543.462280	1568.320313
865.073425	1292.621338	1541.202393	1473.407593
865.375122	1236.125732	1480.187134	1446.289673
865.676819	1218.047119	1536.682739	1489.226440
865.978333	1218.047119	1498.265747	1491.486206
866.279907	1288.101685	1683.571533	1559.281006
866.581360	1283.582031	1615.776733	1523.123779
866.882874	1222.566772	1532.163086	1595.438354
867.184143	1267.763306	1502.785400	1572.839966
867.485535	1193.188965	1518.604126	1520.864014
867.786743	1344.597412	1563.800659	1611.257080
868.088013	1342.337646	1654.193848	1651.933960
868.389160	1292.621338	1577.359619	1498.265747
868.690308	1263.243652	1588.658813	1505.045166
868.991333	1202.228271	1566.060547	1538.942627
869.292358	1274.542725	1550.241699	1536.682739
869.593323	1387.534180	1708.429688	1762.665527
869.894287	1238.385498	1615.776733	1516.344360
870.195068	1290.361572	1577.359619	1629.335693
870.495911	1267.763306	1577.359619	1514.084473
870.796692	1299.400879	1473.407593	1593.178467
871.097412	1245.165039	1550.241699	1500.525513
871.398010	1249.684692	1505.045166	1588.658813
871.698669	1254.204346	1434.990479	1468.887939
871.999207	1326.518799	1509.564819	1489.226440
872.299683	1211.267578	1532.163086	1536.682739
872.600159	1301.660645	1579.619507	1511.824707
872.900574	1321.999146	1554.761353	1432.730713
873.200867	1195.448853	1529.903320	1507.305054
873.501160	1263.243652	1541.202393	1581.879272
873.801392	1206.747925	1606.737427	1541.202393
874.101624	1229.346191	1647.414307	1557.021240
874.401733	1279.062378	1618.036621	1586.398926
874.701843	1254.204346	1615.776733	1523.123779
875.001831	1290.361572	1575.099854	1516.344360
875.301819	1242.905151	1599.958008	1520.864014
875.601746	1229.346191	1629.335693	1654.193848
875.901672	1256.464111	1586.398926	1597.698120
876.201477	1145.732544	1552.501587	1550.241699
876.501282	1224.826538	1547.981934	1493.746094
876.800964	1256.464111	1525.383667	1561.540894
877.100647	1270.023071	1568.320313	1532.163086
877.400208	1346.857300	1561.540894	1507.305054
877.699829	1405.612793	1595.438354	1642.894653
877.999329	1193.188965	1559.281006	1541.202393
878.298767	1281.322266	1477.927246	1468.887939
878.598206	1376.234985	1572.839966	1509.564819
878.897583	1197.708618	1520.864014	1602.217773
879.196838	1292.621338	1552.501587	1518.604126
879.496155	1254.204346	1525.383667	1448.549561
879.795288	1340.077759	1647.414307	1622.556274
880.094482	1321.999146	1620.296387	1624.816040
880.393555	1199.968506	1568.320313	1663.233154
880.692627	1254.204346	1685.831421	1746.846802
880.991577	1265.503418	1636.115234	1805.602295
881.290588	1260.983765	1787.523682	1832.720215
881.589355	1190.929199	1864.357788	1999.947388
881.888306	1344.597412	2205.591797	2210.111328
882.187012	1283.582031	2506.148926	2465.471924
882.485840	1222.566772	2616.880371	2833.823730
882.784424	1290.361572	2964.893799	2962.634033
883.083069	1202.228271	3315.166992	3256.411621
883.381592	1285.841919	3396.520996	3414.599609
883.680176	1211.267578	3541.149902	3511.772217
883.978638	1211.267578	3584.086670	3568.267822
884.277039	1227.086426	3511.772217	3484.654297
884.575378	1288.101685	3392.001221	3439.457520
884.873779	1222.566772	3197.656006	3231.553467
885.171997	1251.944458	3066.586182	3023.649414
885.470276	1308.440186	2985.232178	3084.664795
885.768311	1301.660645	2883.540039	2770.548584
886.066528	1247.424805	2646.258057	2632.699219
886.364502	1193.188965	2515.188232	2544.565918
886.662537	1175.110352	2429.314697	2483.550537
886.960510	1303.920532	2293.725098	2266.607178
887.258362	1265.503418	2128.757568	2126.497803
887.556213	1224.826538	1947.971436	2047.403809
887.854004	1251.944458	1902.774902	1846.279175
888.151733	1342.337646	1993.167969	1796.562988
888.449402	1383.014526	1880.176514	1889.215942
888.747009	1270.023071	1751.366455	1783.004028
889.044617	1326.518799	1789.783447	1685.831421
889.342163	1247.424805	1638.375000	1663.233154
889.639648	1279.062378	1649.674194	1633.855347
889.937012	1231.606079	1561.540894	1547.981934
890.234436	1254.204346	1627.075928	1563.800659
890.531738	1294.881226	1663.233154	1577.359619
890.829041	1220.306885	1597.698120	1552.501587
891.126221	1301.660645	1586.398926	1489.226440
891.423401	1292.621338	1541.202393	1593.178467
891.720459	1254.204346	1543.462280	1554.761353
892.017578	1236.125732	1593.178467	1545.722046
892.314514	1254.204346	1570.580200	1473.407593
892.611511	1270.023071	1557.021240	1559.281006
>>>>>End Processed Spectral Data<<<<<
