Jaz Data File
++++++++++++++++++++++++++++++++++++
Date: Mon Apr 25 12:39:24 2016
User: jaz
Dark Spectrum Present: Yes
Reference Spectrum Present: Yes
Processed Spectrum Present: Yes
Spectrometers: JAZA3098
Integration Time (usec): 926000 (JAZA3098)
Spectra Averaged: 1 (JAZA3098)
Boxcar Smoothing: 0 (JAZA3098)
Correct for Electrical Dark: No (JAZA3098)
Strobe/Lamp Enabled: Yes (JAZA3098)
Correct for Detector Non-linearity: No (JAZA3098)
Correct for Stray Light: No (JAZA3098)
Number of Pixels in Processed Spectrum: 2048
>>>>>Begin Processed Spectral Data<<<<<
W	D	R	S	P
190.313904	0.000000	0.000000	0.000000	0.000000
190.695511	0.000000	0.000000	0.000000	0.000000
191.077087	1227.086426	1132.173584	1161.551392	0.160851
191.458633	1238.385498	1222.566772	1166.071045	-0.660054
191.840149	1197.708618	1213.527466	1157.031738	nan
192.221634	1177.370239	1199.968506	1177.370239	inf
192.603088	1344.597412	1263.243652	1229.346191	-0.151268
192.984528	1425.951172	1383.014526	1358.156372	-0.198368
193.365921	1383.014526	1260.983765	1344.597412	0.501945
193.747284	1279.062378	1218.047119	1202.228271	-0.100116
194.128616	1317.479492	1256.464111	1308.440186	0.829304
194.509918	1358.156372	1385.274292	1285.841919	nan
194.891190	1270.023071	1267.763306	1331.038452	nan
195.272446	1351.376953	1346.857300	1204.488159	-1.511884
195.653656	1407.872559	1477.927246	1496.005859	-0.099703
196.034836	1335.558105	1403.352905	1378.494873	0.198367
196.416000	1317.479492	1240.645386	1301.660645	0.686379
196.797104	1299.400879	1297.140991	1317.479492	nan
197.178192	1333.298340	1355.896606	1360.416260	-0.079181
197.559265	1285.841919	1306.180420	1349.117065	-0.492914
197.940292	1254.204346	1274.542725	1364.935913	-0.735955
198.321304	1355.896606	1242.905151	1328.778687	0.619789
198.702271	1258.723999	1256.464111	1355.896606	nan
199.083221	1276.802612	1276.802612	1242.905151	0.000000
199.464111	1283.582031	1265.503418	1385.274292	nan
199.844986	1349.117065	1387.534180	1292.621338	nan
200.225830	1303.920532	1342.337646	1301.660645	nan
200.606659	1326.518799	1319.739380	1312.959839	-0.301034
200.987427	1403.352905	1412.392212	1468.887939	-0.860338
201.368195	1337.817993	1335.558105	1326.518799	-0.698961
201.748917	1319.739380	1373.975220	1317.479492	nan
202.129608	1317.479492	1281.322266	1288.101685	0.090176
202.510284	1312.959839	1346.857300	1281.322266	nan
202.890915	1265.503418	1324.259033	1283.582031	0.511884
203.271515	1285.841919	1254.204346	1335.558105	nan
203.652100	1367.195679	1362.676025	1324.259033	-0.977723
204.032623	1380.754639	1290.361572	1258.723999	-0.130334
204.413147	1285.841919	1218.047119	1265.503418	0.522877
204.793625	1392.053833	1358.156372	1387.534180	0.875062
205.174088	1270.023071	1285.841919	1229.346191	nan
205.554504	1276.802612	1319.739380	1218.047119	nan
205.934906	1281.322266	1324.259033	1211.267578	nan
206.315247	1263.243652	1303.920532	1292.621338	0.141330
206.695587	1272.282959	1270.023071	1279.062378	nan
207.075882	1344.597412	1383.014526	1290.361572	nan
207.456146	1211.267578	1249.684692	1242.905151	0.084322
207.836380	1349.117065	1387.534180	1349.117065	inf
208.216599	1263.243652	1306.180420	1297.140991	0.102664
208.596771	1294.881226	1222.566772	1279.062378	0.660050
208.976913	1392.053833	1392.053833	1453.069214	0.000000
209.357025	1428.211060	1525.383667	1507.305054	0.089400
209.737106	1263.243652	1270.023071	1351.376953	-1.113948
210.117157	1233.865845	1308.440186	1215.787231	nan
210.497177	1256.464111	1260.983765	1281.322266	-0.740364
210.877167	1308.440186	1260.983765	1301.660645	0.845095
211.257126	1299.400879	1331.038452	1301.660645	1.146140
211.637070	1437.250366	1396.573486	1353.636719	-0.312930
212.016968	1299.400879	1321.999146	1299.400879	inf
212.396835	1285.841919	1342.337646	1294.881226	0.795880
212.776672	1285.841919	1270.023071	1263.243652	-0.154900
213.156464	1236.125732	1267.763306	1206.747925	nan
213.536255	1276.802612	1272.282959	1288.101685	nan
213.916000	1274.542725	1283.582031	1222.566772	nan
214.295700	1301.660645	1333.298340	1301.660645	inf
214.675400	1290.361572	1281.322266	1249.684692	-0.653212
215.055038	1177.370239	1249.684692	1215.787231	0.274702
215.434662	1297.140991	1398.833252	1306.180420	1.051147
215.814240	1310.700073	1378.494873	1428.211060	-0.238882
216.193787	1294.881226	1346.857300	1222.566772	nan
216.573334	1272.282959	1412.392212	1265.503418	nan
216.952820	1240.645386	1380.754639	1362.676025	0.059998
217.332275	1276.802612	1333.298340	1297.140991	0.443699
217.711716	1446.289673	1439.510132	1493.746094	nan
218.091125	1353.636719	1333.298340	1303.920532	-0.388181
218.470505	1459.848633	1428.211060	1446.289673	0.367977
218.849854	1337.817993	1358.156372	1340.077759	0.954253
219.229156	1385.274292	1326.518799	1362.676025	0.414973
219.608444	1308.440186	1328.778687	1274.542725	nan
219.987671	1446.289673	1403.352905	1353.636719	-0.334030
220.366898	1416.911865	1351.376953	1303.920532	-0.236572
220.746094	1392.053833	1328.778687	1344.597412	0.124938
221.125244	1369.455566	1319.739380	1405.612793	nan
221.504364	1326.518799	1328.778687	1364.935913	-1.230438
221.883469	1258.723999	1283.582031	1328.778687	-0.449970
222.262512	1285.841919	1371.715332	1321.999146	0.375664
222.641556	1263.243652	1328.778687	1211.267578	nan
223.020554	1288.101685	1265.503418	1247.424805	-0.255273
223.399521	1342.337646	1292.621338	1247.424805	-0.280826
223.778473	1274.542725	1317.479492	1299.400879	0.237360
224.157364	1218.047119	1290.361572	1213.527466	nan
224.536240	1242.905151	1263.243652	1299.400879	-0.443697
224.915085	1213.527466	1247.424805	1204.488159	nan
225.293900	1260.983765	1245.165039	1193.188965	-0.632025
225.672684	1335.558105	1353.636719	1274.542725	nan
226.051437	1355.896606	1317.479492	1346.857300	0.628390
226.430161	1245.165039	1272.282959	1260.983765	0.234085
226.808838	1294.881226	1331.038452	1317.479492	0.204120
227.187500	1362.676025	1376.234985	1414.652100	-0.583577
227.566132	1256.464111	1321.999146	1195.448853	nan
227.944717	1412.392212	1321.999146	1303.920532	-0.079181
228.323288	1403.352905	1387.534180	1319.739380	-0.723105
228.701813	1353.636719	1394.313599	1342.337646	nan
229.080307	1355.896606	1328.778687	1281.322266	-0.439333
229.458786	1346.857300	1398.833252	1340.077759	nan
229.837234	1351.376953	1389.793945	1337.817993	nan
230.215637	1290.361572	1389.793945	1240.645386	nan
230.594009	1247.424805	1389.793945	1342.337646	0.176091
230.972351	1349.117065	1475.667480	1292.621338	nan
231.350662	1303.920532	1500.525513	1376.234985	0.434369
231.728958	1254.204346	1362.676025	1247.424805	nan
232.107193	1299.400879	1450.809326	1297.140991	nan
232.485413	1251.944458	1369.455566	1301.660645	0.373581
232.863602	1229.346191	1378.494873	1283.582031	0.439333
233.241760	1306.180420	1392.053833	1328.778687	0.579784
233.619873	1301.660645	1398.833252	1292.621338	nan
233.997986	1407.872559	1473.407593	1369.455566	nan
234.376038	1364.935913	1416.911865	1378.494873	0.583576
234.754074	1301.660645	1444.029785	1337.817993	0.595219
235.132065	1310.700073	1376.234985	1238.385498	nan
235.510025	1367.195679	1484.706787	1242.905151	nan
235.887970	1254.204346	1373.975220	1254.204346	inf
236.265869	1319.739380	1473.407593	1301.660645	nan
236.643738	1324.259033	1434.990479	1389.793945	0.227798
237.021576	1204.488159	1398.833252	1342.337646	0.149168
237.399384	1204.488159	1355.896606	1297.140991	0.213291
237.777161	1324.259033	1416.911865	1376.234985	0.251056
238.154892	1254.204346	1333.298340	1276.802612	0.544068
238.532623	1290.361572	1459.848633	1265.503418	nan
238.910309	1249.684692	1434.990479	1321.999146	0.408664
239.287949	1292.621338	1423.691406	1308.440186	0.918329
239.665573	1209.007813	1523.123779	1315.219727	0.470917
240.043167	1251.944458	1448.549561	1344.597412	0.326735
240.420715	1355.896606	1457.588867	1331.038452	nan
240.798233	1276.802612	1480.187134	1349.117065	0.449093
241.175735	1258.723999	1491.486206	1378.494873	0.288561
241.553207	1265.503418	1430.470825	1229.346191	nan
241.930634	1301.660645	1468.887939	1362.676025	0.437868
242.308014	1290.361572	1579.619507	1263.243652	nan
242.685394	1256.464111	1577.359619	1240.645386	nan
243.062729	1288.101685	1703.910034	1331.038452	0.986064
243.440033	1229.346191	1712.949341	1285.841919	0.932474
243.817307	1297.140991	1801.082642	1405.612793	0.667063
244.194534	1324.259033	1740.067261	1340.077759	1.419722
244.571747	1272.282959	1807.862061	1344.597412	0.869599
244.948929	1301.660645	1755.886108	1333.298340	1.157067
245.326065	1288.101685	1660.973267	1342.337646	0.837272
245.703186	1299.400879	1642.894653	1328.778687	1.067899
246.080261	1254.204346	1660.973267	1303.920532	0.912850
246.457306	1267.763306	1629.335693	1263.243652	nan
246.834320	1260.983765	1674.532227	1303.920532	0.983697
247.211304	1321.999146	1785.263794	1326.518799	2.010724
247.588257	1378.494873	1794.303101	1387.534180	1.662758
247.965195	1319.739380	1923.113281	1405.612793	0.846728
248.342087	1355.896606	2042.884155	1364.935913	1.880814
248.718933	1227.086426	2036.104736	1371.715332	0.747703
249.095764	1256.464111	2051.923584	1331.038452	1.028029
249.472549	1297.140991	2117.458496	1489.226440	0.630488
249.849319	1247.424805	1995.427734	1410.132446	0.662495
250.226044	1290.361572	1918.593628	1362.676025	0.938895
250.602737	1245.165039	1886.956055	1392.053833	0.640405
250.979401	1346.857300	1855.318481	1355.896606	1.750123
251.356033	1317.479492	1884.696289	1380.754639	0.952516
251.732635	1310.700073	1828.200562	1383.014526	0.854686
252.109207	1362.676025	1801.082642	1432.730713	0.796440
252.485748	1331.038452	1816.901367	1412.392212	0.776136
252.862244	1312.959839	1832.720215	1279.062378	nan
253.238724	1276.802612	1871.137207	1392.053833	0.712385
253.615158	1301.660645	1839.499634	1340.077759	1.146128
253.991577	1238.385498	1862.097900	1385.274292	0.627996
254.367950	1342.337646	1794.303101	1358.156372	1.455934
254.744308	1387.534180	1961.530396	1486.966553	0.761381
255.120621	1346.857300	1837.239868	1337.817993	nan
255.496902	1335.558105	1760.405762	1308.440186	nan
255.873154	1326.518799	1683.571533	1337.817993	1.499685
256.249390	1285.841919	1636.115234	1285.841919	inf
256.625549	1256.464111	1681.311768	1349.117065	0.661374
257.001709	1360.416260	1805.602295	1394.313599	1.118376
257.377838	1333.298340	1721.988647	1251.944458	nan
257.753937	1308.440186	1699.390381	1310.700073	2.238034
258.129974	1270.023071	1740.067261	1351.376953	0.761760
258.506012	1294.881226	1857.578247	1303.920532	1.794140
258.881989	1326.518799	1916.333862	1360.416260	1.240549
259.257935	1297.140991	2036.104736	1389.793945	0.901764
259.633911	1288.101685	1997.687622	1414.652100	0.748741
260.009766	1351.376953	2072.261963	1430.470825	0.959723
260.385651	1342.337646	2406.716309	1477.927246	0.894870
260.761475	1335.558105	2424.794922	1328.778687	nan
261.137299	1346.857300	2472.251465	1405.612793	1.282256
261.513062	1294.881226	2524.227539	1369.455566	1.217085
261.888763	1351.376953	2795.406738	1500.525513	0.985957
262.264496	1288.101685	2571.683838	1380.754639	1.141564
262.640137	1324.259033	2447.393311	1414.652100	1.094297
263.015808	1260.983765	2210.111328	1405.612793	0.817069
263.391388	1321.999146	2350.220703	1462.108521	0.865619
263.766998	1364.935913	2230.449951	1473.407593	0.901958
264.142517	1437.250366	2171.694336	1439.510132	2.511895
264.518036	1260.983765	2004.467041	1315.219727	1.136984
264.893524	1324.259033	2099.379883	1333.298340	1.933234
265.268951	1362.676025	2088.080811	1480.187134	0.790501
265.644379	1270.023071	1943.451782	1355.896606	0.894432
266.019745	1251.944458	1945.711548	1378.494873	0.738950
266.395111	1288.101685	2013.506348	1349.117065	1.075141
266.770386	1301.660645	2126.497803	1371.715332	1.070931
267.145691	1297.140991	2011.246582	1312.959839	1.654588
267.520966	1240.645386	2126.497803	1392.053833	0.767211
267.896149	1292.621338	2253.048096	1416.911865	0.888026
268.271362	1319.739380	2185.253418	1421.431519	0.929987
268.646515	1222.566772	2198.812256	1344.597412	0.903090
269.021606	1251.944458	2334.401855	1425.951172	0.793845
269.396729	1283.582031	2230.449951	1423.691406	0.829822
269.771790	1319.739380	2210.111328	1344.597412	1.554105
270.146790	1276.802612	2187.513184	1380.754639	0.942547
270.521790	1412.392212	2404.456543	1482.446899	1.151103
270.896759	1335.558105	2336.661865	1437.250366	0.993191
271.271667	1369.455566	2307.283936	1394.313599	1.576657
271.646545	1249.684692	2338.921631	1428.211060	0.785420
272.021423	1306.180420	2558.124756	1428.211060	1.011116
272.396271	1247.424805	2503.888916	1378.494873	0.981647
272.771027	1270.023071	2671.116211	1450.809326	0.889302
273.145813	1328.778687	2664.336670	1468.887939	0.979196
273.520538	1360.416260	2865.461426	1484.706787	1.083112
273.895233	1283.582031	2781.847900	1457.588867	0.935023
274.269897	1310.700073	2637.218750	1419.171753	1.087397
274.644501	1270.023071	2596.541992	1439.510132	0.893577
275.019135	1340.077759	2601.061523	1387.534180	1.424415
275.393677	1206.747925	2533.266846	1346.857300	0.976246
275.768250	1227.086426	2517.447998	1385.274292	0.911538
276.142700	1315.219727	2510.668457	1331.038452	1.878359
276.517212	1222.566772	2578.463379	1403.352905	0.875061
276.891632	1258.723999	2526.487305	1405.612793	0.936050
277.266022	1274.542725	2632.699219	1416.911865	0.979534
277.640381	1299.400879	2625.919678	1498.265747	0.824155
278.014740	1324.259033	2736.651123	1475.667480	0.969805
278.389038	1290.361572	2680.155518	1398.833252	1.107634
278.763336	1270.023071	2677.895752	1421.431519	0.968413
279.137543	1288.101685	2662.076904	1455.328979	0.914672
279.511780	1297.140991	2802.186279	1444.029785	1.010561
279.885925	1297.140991	2707.273438	1520.864014	0.799549
280.260101	1260.983765	2659.817139	1373.975220	1.092720
280.634186	1315.219727	2775.068359	1446.289673	1.046805
281.008301	1389.793945	2781.847900	1502.785400	1.090611
281.382294	1238.385498	2813.485352	1421.431519	0.934748
281.756348	1274.542725	2978.452881	1468.887939	0.942873
282.130280	1270.023071	2942.295654	1446.289673	0.977137
282.504272	1355.896606	3213.474854	1525.383667	1.039811
282.878143	1301.660645	3136.640625	1475.667480	1.023065
283.252014	1319.739380	3281.269775	1520.864014	0.989130
283.625854	1434.990479	3398.780762	1629.335693	1.004521
283.999664	1315.219727	3389.741455	1441.770020	1.214655
284.373444	1297.140991	3301.608154	1419.171753	1.215530
284.747192	1272.282959	3211.215088	1486.966553	0.955764
285.120941	1337.817993	3394.260986	1588.658813	0.913718
285.494629	1242.905151	3346.804688	1457.588867	0.991226
285.868256	1321.999146	3495.953369	1448.549561	1.234987
286.241882	1362.676025	3543.409668	1498.265747	1.206376
286.615448	1351.376953	3620.243896	1545.722046	1.067235
286.988983	1206.747925	3636.062744	1484.706787	0.941503
287.362518	1308.440186	3848.486328	1468.887939	1.199508
287.736023	1263.243652	3895.942871	1459.848633	1.126807
288.109467	1245.165039	3805.549805	1547.981934	0.927125
288.482880	1310.700073	3999.894775	1577.359619	1.003665
288.856262	1312.959839	3873.344482	1658.713501	0.869538
289.229584	1317.479492	3733.235107	1509.564819	1.099559
289.602936	1321.999146	3678.999268	1516.344360	1.083786
289.976227	1387.534180	3604.425049	1577.359619	1.067390
290.349457	1285.841919	3624.763428	1518.604126	1.002103
290.722687	1331.038452	3776.171875	1527.643433	1.094708
291.095886	1288.101685	3947.918945	1566.060547	0.980871
291.469025	1317.479492	4072.209473	1529.903320	1.112876
291.842133	1333.298340	4020.233398	1498.265747	1.211859
292.215240	1389.793945	4210.059082	1532.163086	1.296874
292.588287	1297.140991	4128.705078	1514.084473	1.115680
292.961304	1272.282959	4042.831543	1507.305054	1.071457
293.334320	1294.881226	3954.698242	1505.045166	1.102293
293.707245	1297.140991	3877.864258	1448.549561	1.231591
294.080170	1272.282959	4031.532471	1523.123779	1.041393
294.453064	1321.999146	4017.973389	1480.187134	1.231542
294.825897	1256.464111	4006.674316	1518.604126	1.020833
295.198730	1256.464111	4221.357910	1525.383667	1.042387
295.571533	1306.180420	4345.648438	1459.848633	1.296214
295.944275	1301.660645	4440.561035	1523.123779	1.151476
296.317017	1317.479492	4648.465332	1708.429688	0.930451
296.689697	1274.542725	4632.646484	1498.265747	1.176383
297.062317	1306.180420	4806.653320	1498.265747	1.260633
297.434967	1290.361572	4939.983398	1584.139160	1.094229
297.807526	1236.125732	5030.376465	1595.438354	1.023654
298.180115	1222.566772	5089.131836	1525.383667	1.106145
298.552612	1276.802612	5170.485352	1613.516968	1.063099
298.925110	1326.518799	5226.981445	1676.792114	1.046709
299.297546	1292.621338	5021.336914	1579.619507	1.113680
299.669983	1247.424805	5052.974609	1606.737427	1.024945
300.042358	1328.778687	4851.850098	1706.169800	0.970130
300.414734	1290.361572	4623.607422	1543.462280	1.119574
300.787048	1236.125732	4506.096191	1541.202393	1.030135
301.159332	1294.881226	4386.325195	1557.021240	1.071628
301.531616	1283.582031	4433.781738	1468.887939	1.230449
301.903809	1344.597412	4445.081055	1597.698120	1.088136
302.276031	1245.165039	4465.419434	1446.289673	1.204425
302.648163	1258.723999	4386.325195	1536.682739	1.051231
303.020294	1270.023071	4307.231445	1507.305054	1.107210
303.392395	1270.023071	4359.207520	1514.084473	1.102345
303.764435	1184.149658	4228.137695	1525.383667	0.950391
304.136444	1245.165039	4212.318848	1529.903320	1.017894
304.508453	1312.959839	4262.034668	1518.604126	1.156569
304.880371	1317.479492	4277.853516	1627.075928	0.980551
305.252319	1279.062378	4063.170166	1520.864014	1.061227
305.624207	1331.038452	4176.161621	1660.973267	0.935673
305.996033	1283.582031	4182.940918	1584.139160	0.984375
306.367859	1227.086426	4110.626465	1529.903320	0.978746
306.739655	1290.361572	4173.901367	1493.746094	1.151608
307.111389	1220.306885	4060.910156	1491.486206	1.020154
307.483124	1308.440186	4126.445313	1509.564819	1.146477
307.854828	1317.479492	4289.152832	1475.667480	1.273828
308.226471	1294.881226	4295.932129	1441.770020	1.310285
308.598083	1344.597412	4210.059082	1507.305054	1.245787
308.969666	1306.180420	4386.325195	1541.202393	1.117463
309.341187	1335.558105	4365.986816	1541.202393	1.168387
309.712738	1299.400879	4530.954590	1516.344360	1.173065
310.084167	1301.660645	4680.103027	1511.824707	1.206158
310.455658	1387.534180	4815.692871	1568.320313	1.277896
310.827057	1387.534180	4955.801758	1577.359619	1.274103
311.198456	1349.117065	4910.605469	1602.217773	1.148338
311.569794	1283.582031	4813.432617	1584.139160	1.069829
311.941132	1315.219727	4881.227539	1557.021240	1.168723
312.312408	1242.905151	4958.062012	1547.981934	1.085568
312.683655	1283.582031	4928.684082	1552.501587	1.132087
313.054840	1326.518799	4958.062012	1543.462280	1.223745
313.426056	1272.282959	4723.039551	1620.296387	0.996318
313.797180	1351.376953	4840.550781	1658.713501	1.055108
314.168304	1294.881226	4637.166504	1489.226440	1.235470
314.539368	1265.503418	4637.166504	1437.250366	1.292955
314.910431	1231.606079	4666.543945	1505.045166	1.099058
315.281433	1308.440186	4795.354004	1595.438354	1.084562
315.652435	1292.621338	5025.856445	1590.918701	1.097436
316.023346	1258.723999	4854.109863	1545.722046	1.097867
316.394287	1213.527466	4897.046387	1536.682739	1.056852
316.765137	1213.527466	4881.227539	1491.486206	1.120413
317.135986	1283.582031	4840.550781	1550.241699	1.125123
317.506775	1303.920532	4603.269043	1534.422974	1.155753
317.877594	1423.691406	4619.087402	1654.193848	1.141849
318.248291	1283.582031	4569.371582	1593.178467	1.025844
318.619019	1349.117065	4607.788574	1590.918701	1.129581
318.989655	1367.195679	4555.812500	1588.658813	1.158301
319.360321	1303.920532	4506.096191	1516.344360	1.178242
319.730896	1260.983765	4601.008789	1547.981934	1.065871
320.101501	1285.841919	4689.142090	1525.383667	1.152519
320.472015	1279.062378	4648.465332	1563.800659	1.073107
320.842529	1249.684692	4741.118164	1507.305054	1.132024
321.213013	1251.944458	4662.024414	1595.438354	0.996846
321.583466	1285.841919	4578.410645	1523.123779	1.142270
321.953827	1260.983765	4628.126953	1410.132446	1.353642
322.324188	1297.140991	4582.930176	1496.005859	1.218082
322.694519	1260.983765	4702.701172	1493.746094	1.169863
323.064819	1326.518799	4727.559570	1464.368286	1.392207
323.435059	1349.117065	5012.297852	1550.241699	1.260393
323.805328	1351.376953	4951.282227	1514.084473	1.344883
324.175507	1373.975220	5188.563965	1566.060547	1.297954
324.545685	1251.944458	5301.555664	1489.226440	1.232149
324.915802	1335.558105	5649.568848	1534.422974	1.336323
325.285919	1297.140991	5687.986328	1620.296387	1.133137
325.655975	1227.086426	5441.665039	1627.075928	1.022706
326.025970	1260.983765	5468.782715	1608.997314	1.082459
326.395966	1297.140991	5581.774414	1505.045166	1.314050
326.765930	1310.700073	5491.380859	1575.099854	1.198986
327.135864	1290.361572	5541.097168	1692.610840	1.023969
327.505737	1299.400879	5475.562500	1679.051880	1.041393
327.875580	1297.140991	5385.169434	1590.918701	1.143495
328.245422	1500.525513	5466.522949	1767.185181	1.172395
328.615204	1385.274292	5220.201660	1552.501587	1.360450
328.984955	1294.881226	5290.256348	1529.903320	1.230449
329.354675	1306.180420	5109.470215	1545.722046	1.200778
329.724365	1272.282959	4903.825684	1541.202393	1.130469
330.093994	1254.204346	5102.690918	1554.761353	1.107363
330.463623	1249.684692	4899.306152	1534.422974	1.107802
330.833191	1308.440186	5222.461426	1516.344360	1.274760
331.202759	1294.881226	5188.563965	1547.981934	1.187067
331.572266	1242.905151	5177.265137	1566.060547	1.085463
331.941711	1288.101685	5281.217285	1525.383667	1.226047
332.311188	1387.534180	5236.020508	1640.634888	1.181997
332.680573	1328.778687	5513.979492	1559.281006	1.259041
333.049988	1279.062378	5733.182617	1557.021240	1.204781
333.419312	1326.518799	5733.182617	1672.272461	1.105343
333.788635	1260.983765	5857.473145	1518.604126	1.251446
334.157867	1306.180420	5932.047363	1572.839966	1.239236
334.527130	1254.204346	5981.763672	1552.501587	1.199988
334.896332	1319.739380	6135.432129	1721.988647	1.078164
335.265503	1215.787231	6261.982422	1545.722046	1.184536
335.634613	1319.739380	6026.960449	1597.698120	1.228784
336.003723	1335.558105	6112.833496	1559.281006	1.329470
336.372772	1446.289673	6029.220215	1656.453613	1.338585
336.741821	1197.708618	5938.827148	1577.359619	1.096496
337.110809	1276.802612	5889.110840	1597.698120	1.157555
337.479797	1340.077759	5837.134766	1654.193848	1.155838
337.848724	1364.935913	5918.488281	1676.792114	1.164396
338.217590	1288.101685	6017.920898	1493.746094	1.361728
338.586487	1263.243652	5918.488281	1572.839966	1.177147
338.955292	1376.234985	5993.062988	1554.761353	1.412641
339.324036	1213.527466	5913.968750	1579.619507	1.108548
339.692841	1276.802612	6151.250977	1597.698120	1.181562
340.061523	1247.424805	5968.204590	1570.580200	1.164602
340.430237	1240.645386	5893.630371	1642.894653	1.063236
340.798859	1340.077759	5979.503906	1676.792114	1.139203
341.167511	1238.385498	5923.008301	1579.619507	1.137622
341.536072	1303.920532	5843.914063	1529.903320	1.302980
341.904663	1285.841919	5990.803223	1577.359619	1.207891
342.273102	1340.077759	5895.890137	1651.933960	1.164611
342.641632	1373.975220	6271.021484	1742.327148	1.123671
343.010040	1285.841919	6038.259277	1572.839966	1.219036
343.378510	1294.881226	6094.754883	1590.918701	1.209883
343.746826	1254.204346	6126.392578	1613.516968	1.132252
344.115204	1369.455566	6277.801270	1665.492920	1.219589
344.483490	1270.023071	6329.777344	1629.335693	1.148657
344.851776	1362.676025	6458.587402	1608.997314	1.315720
345.220001	1301.660645	6754.624512	1618.036621	1.236429
345.588196	1272.282959	6704.908691	1613.516968	1.201957
345.956329	1263.243652	6854.057129	1658.713501	1.150362
346.324524	1215.787231	6887.954590	1611.257080	1.156636
346.692596	1367.195679	6955.749512	1642.894653	1.306864
347.060669	1351.376953	6869.875977	1737.807495	1.154750
347.428680	1281.322266	6711.687988	1618.036621	1.207567
347.796692	1326.518799	6707.168457	1561.540894	1.359726
348.164612	1288.101685	6476.666016	1557.021240	1.285425
348.532562	1349.117065	6564.799316	1719.728760	1.148392
348.900421	1346.857300	6576.098145	1814.641602	1.048393
349.268311	1292.621338	6327.517090	1615.776733	1.192579
349.636108	1292.621338	6302.659180	1606.737427	1.202751
350.003906	1285.841919	6546.720703	1683.571533	1.121470
350.371643	1349.117065	6542.201172	1620.296387	1.282169
350.739380	1373.975220	6745.585449	1685.831421	1.236150
351.107025	1242.905151	6673.270996	1633.855347	1.142708
351.474701	1297.140991	6469.886230	1636.115234	1.183554
351.842285	1242.905151	6741.065918	1586.398926	1.204298
352.209900	1256.464111	6777.223145	1703.910034	1.091258
352.577393	1358.156372	6806.600586	1728.768066	1.167353
352.944946	1242.905151	6591.916992	1577.359619	1.203937
353.312378	1310.700073	6614.515625	1638.375000	1.209145
353.679840	1288.101685	6955.749512	1645.154541	1.200670
354.047211	1285.841919	7077.780273	1717.468994	1.127715
354.414612	1299.400879	7104.897949	1642.894653	1.227921
354.781891	1184.149658	7441.612305	1712.949341	1.073107
355.149231	1285.841919	7520.706055	1703.910034	1.173580
355.516449	1274.542725	7626.917969	1690.351074	1.184043
355.883698	1206.747925	7780.586426	1627.075928	1.194231
356.250854	1312.959839	7832.562500	1731.027954	1.192974
356.618011	1331.038452	8329.724609	1701.650146	1.276097
356.985168	1236.125732	8133.119629	1660.973267	1.210427
357.352234	1362.676025	8564.747070	1801.082642	1.215580
357.719269	1251.944458	8887.902344	1683.571533	1.247755
358.086304	1229.346191	9046.089844	1699.390381	1.220887
358.453278	1233.865845	9376.024414	1776.224487	1.176453
358.820190	1247.424805	9351.166992	1721.988647	1.232391
359.187103	1292.621338	9647.204102	1731.027954	1.280048
359.554016	1346.857300	9461.898438	1796.562988	1.256362
359.920837	1283.582031	9163.600586	1742.327148	1.234956
360.287628	1310.700073	9407.662109	1801.082642	1.217787
360.654388	1308.440186	9348.907227	1746.846802	1.263404
361.021149	1290.361572	9475.457031	1866.617554	1.152408
361.387848	1369.455566	10261.876953	1839.499634	1.276881
361.754486	1240.645386	10908.187500	1873.397095	1.184083
362.121124	1247.424805	11161.289063	1900.515015	1.181270
362.487732	1283.582031	11744.324219	1993.167969	1.168558
362.854279	1258.723999	11773.702148	1975.089355	1.166674
363.220795	1340.077759	11785.000977	1986.388428	1.208464
363.587311	1292.621338	11595.175781	1898.255249	1.230735
363.953735	1335.558105	11079.934570	1859.838135	1.269191
364.320160	1290.361572	10485.600586	1862.097900	1.206367
364.686554	1260.983765	9785.053711	1731.027954	1.258508
365.052887	1267.763306	9321.789063	1651.933960	1.321489
365.419189	1297.140991	8966.996094	1733.287720	1.245155
365.785492	1249.684692	8856.264648	1742.327148	1.188658
366.151703	1240.645386	8594.124023	1751.366455	1.158309
366.517944	1362.676025	8420.118164	1715.209106	1.301448
366.884094	1401.093140	8585.084961	1807.862061	1.247018
367.250214	1213.527466	8386.220703	1737.807495	1.136119
367.616333	1285.841919	8598.644531	1792.043335	1.159760
367.982361	1331.038452	8467.574219	1692.610840	1.295292
368.348419	1188.669312	8261.929688	1694.870728	1.145296
368.714386	1290.361572	8252.890625	1751.366455	1.179062
369.080383	1297.140991	8431.416992	1733.287720	1.213717
369.446289	1362.676025	8216.733398	1801.082642	1.194071
369.812195	1349.117065	7986.230957	1762.665527	1.205453
370.178009	1224.826538	8047.246094	1679.051880	1.176667
370.543854	1249.684692	8017.868164	1651.933960	1.225977
370.909607	1256.464111	8103.741699	1690.351074	1.198141
371.275360	1279.062378	8157.977539	1692.610840	1.220994
371.641052	1238.385498	8291.307617	1728.768066	1.157834
372.006744	1301.660645	8377.180664	1627.075928	1.337320
372.372375	1306.180420	8589.604492	1783.004028	1.183978
372.737976	1288.101685	8487.912109	1733.287720	1.208780
373.103546	1317.479492	8442.715820	1767.185181	1.199871
373.469055	1236.125732	8329.724609	1755.886108	1.135063
373.834595	1263.243652	8485.652344	1853.058594	1.087966
374.199982	1270.023071	8354.583008	1685.831421	1.231420
374.565460	1324.259033	8415.597656	1708.429688	1.266204
374.930817	1285.841919	8689.037109	1694.870728	1.257665
375.296204	1279.062378	8472.093750	1726.508301	1.206171
375.661499	1251.944458	8840.445313	1731.027954	1.199745
376.026825	1319.739380	8966.996094	1850.798828	1.158363
376.391998	1331.038452	8971.515625	1760.405762	1.250291
376.757263	1258.723999	9407.662109	1792.043335	1.184114
377.122406	1279.062378	9635.905273	1717.468994	1.280165
377.487549	1258.723999	9904.824219	1740.067261	1.254365
377.852631	1229.346191	10221.200195	1801.082642	1.196653
378.217743	1281.322266	10444.922852	1866.617554	1.194691
378.582764	1306.180420	10313.853516	1880.176514	1.195704
378.947754	1238.385498	10417.805664	1850.798828	1.175771
379.312714	1373.975220	10214.420898	1914.073975	1.214001
379.677673	1288.101685	9712.739258	1744.586914	1.266124
380.042542	1328.778687	9552.291016	1801.082642	1.240836
380.407379	1312.959839	9104.845703	1821.421021	1.185385
380.772186	1245.165039	9274.333008	1726.508301	1.222216
381.136993	1254.204346	9272.072266	1715.209106	1.240353
381.501740	1231.606079	9199.757813	1703.910034	1.227136
381.866486	1224.826538	9414.441406	1825.940674	1.134307
382.231110	1233.865845	9138.743164	1737.807495	1.195515
382.595764	1288.101685	9016.711914	1717.468994	1.255272
382.960327	1197.708618	9267.552734	1712.949341	1.194855
383.324951	1263.243652	9055.128906	1717.468994	1.234371
383.689453	1288.101685	9247.214844	1767.185181	1.220454
384.053986	1263.243652	9466.417969	1780.744141	1.200071
384.418396	1281.322266	9663.022461	1737.807495	1.263905
384.782867	1306.180420	9527.433594	1780.744141	1.238644
385.147217	1351.376953	9936.461914	1834.979980	1.249256
385.511597	1285.841919	9990.698242	1764.925415	1.259350
385.875885	1240.645386	10173.744141	1814.641602	1.192093
386.240204	1270.023071	10212.161133	1785.263794	1.239431
386.604401	1279.062378	10049.453125	1807.862061	1.219728
386.968628	1355.896606	10196.341797	1792.043335	1.306841
387.332764	1306.180420	10065.272461	1807.862061	1.242031
387.696930	1290.361572	10429.104492	1868.877441	1.198571
388.061005	1346.857300	10630.229492	1825.940674	1.287295
388.425140	1326.518799	10621.189453	1916.333862	1.197518
388.789124	1288.101685	10537.576172	1873.397095	1.198742
389.153168	1301.660645	10383.908203	1828.200562	1.236762
389.517090	1308.440186	10390.687500	1794.303101	1.271680
389.881042	1247.424805	10444.922852	1807.862061	1.215143
390.244873	1204.488159	10381.648438	1807.862061	1.182122
390.608734	1385.274292	10603.111328	1925.373169	1.232156
390.972534	1263.243652	10587.291992	1771.704834	1.263347
391.336304	1218.047119	10657.346680	1803.342407	1.207565
391.700043	1222.566772	11041.517578	1898.255249	1.162319
392.063751	1254.204346	11328.515625	1853.058594	1.225894
392.427399	1238.385498	11378.232422	1780.744141	1.271745
392.791077	1419.171753	11997.424805	2058.702881	1.218552
393.154663	1342.337646	11710.426758	1943.451782	1.236742
393.518219	1312.959839	11568.057617	1914.073975	1.231983
393.881744	1362.676025	11633.592773	2018.026001	1.195136
394.245209	1274.542725	11432.467773	1846.279175	1.249609
394.608704	1344.597412	11597.435547	1893.735596	1.271163
394.972107	1367.195679	11409.869141	1905.034668	1.271197
395.335480	1364.935913	11864.094727	2015.766235	1.207687
395.698792	1321.999146	11694.607422	1900.515015	1.253573
396.062103	1387.534180	11601.955078	1981.868774	1.235183
396.425385	1297.140991	11199.706055	2004.467041	1.146128
396.788635	1344.597412	10777.118164	1871.137207	1.253197
397.151825	1184.149658	10420.065430	1832.720215	1.153523
397.514984	1276.802612	10492.379883	1828.200562	1.223057
397.878113	1303.920532	10392.947266	1911.814209	1.174690
398.241180	1224.826538	10250.578125	1758.145874	1.228496
398.604248	1260.983765	10270.916992	1760.405762	1.256254
398.967285	1340.077759	10426.844727	1844.019287	1.256029
399.330231	1297.140991	10270.916992	1805.602295	1.246717
399.693176	1297.140991	10035.894531	1780.744141	1.256960
400.056091	1254.204346	10230.239258	1801.082642	1.215194
400.418976	1281.322266	9940.981445	1850.798828	1.182025
400.781830	1279.062378	10033.634766	1907.294556	1.144115
401.144592	1260.983765	10246.058594	1728.768066	1.283476
401.507355	1294.881226	10053.972656	1889.215942	1.168428
401.870087	1260.983765	10139.846680	1846.279175	1.180982
402.232758	1211.267578	10214.420898	1839.499634	1.156275
402.595428	1335.558105	10397.466797	1859.838135	1.237656
402.958038	1233.865845	10476.560547	1841.759521	1.181971
403.320618	1249.684692	10575.993164	1823.680908	1.210801
403.683167	1340.077759	10580.512695	1821.421021	1.283237
404.045654	1358.156372	11034.738281	1986.388428	1.187602
404.408142	1256.464111	10842.653320	1911.814209	1.165173
404.770569	1272.282959	11152.249023	1868.877441	1.219076
405.132996	1331.038452	11610.994141	2042.884155	1.159605
405.495331	1294.881226	11755.623047	1884.696289	1.248847
405.857666	1428.211060	12004.204102	2042.884155	1.235677
406.219940	1251.944458	11751.103516	1875.656860	1.226170
406.582214	1247.424805	12033.582031	1947.971436	1.187430
406.944427	1265.503418	11651.670898	1900.515015	1.213674
407.306549	1199.968506	11464.105469	1891.475708	1.171526
407.668732	1249.684692	11278.799805	1880.176514	1.201583
408.030792	1297.140991	11186.146484	1900.515015	1.214566
408.392914	1251.944458	11260.720703	1925.373169	1.172089
408.754883	1344.597412	11003.100586	1880.176514	1.256086
409.116943	1276.802612	11278.799805	1970.569702	1.158873
409.478882	1267.763306	11412.129883	1920.853516	1.191252
409.840820	1387.534180	11493.483398	2006.726929	1.212751
410.202667	1328.778687	11511.561523	1954.750854	1.211311
410.564575	1301.660645	11766.922852	1984.128662	1.185668
410.926331	1297.140991	11620.033203	1934.412476	1.209477
411.288147	1342.337646	11696.868164	1916.333862	1.256221
411.649872	1279.062378	11604.214844	1972.829468	1.172683
412.011566	1218.047119	11586.135742	1893.735596	1.185952
412.373199	1312.959839	11595.175781	1990.908081	1.180890
412.734894	1299.400879	11165.808594	1839.499634	1.261686
413.096436	1258.723999	11104.792969	1880.176514	1.199855
413.458008	1297.140991	11337.554688	1959.270508	1.180809
413.819519	1351.376953	11348.854492	1927.632935	1.239275
414.181030	1222.566772	11147.729492	1882.436401	1.177279
414.542450	1254.204346	11617.773438	1923.113281	1.190142
414.903870	1258.723999	11403.089844	1999.947388	1.136276
415.265198	1274.542725	11821.158203	1902.774902	1.224993
415.626587	1245.165039	11836.976563	1927.632935	1.190888
415.987854	1260.983765	12006.463867	1977.349121	1.176091
416.349152	1229.346191	12044.880859	1950.231201	1.176182
416.710327	1272.282959	12297.981445	1950.231201	1.211210
417.071533	1260.983765	11990.645508	2018.026001	1.151466
417.432678	1240.645386	12781.584961	1981.868774	1.192292
417.793823	1222.566772	12964.630859	2049.663574	1.152188
418.154877	1233.865845	13296.825195	1993.167969	1.201039
418.515930	1254.204346	13897.939453	2013.506348	1.221461
418.876923	1346.857300	14390.582031	2151.355957	1.209876
419.237915	1310.700073	14951.019531	2176.214111	1.197550
419.598816	1369.455566	15353.268555	2198.812256	1.226884
419.959717	1222.566772	15511.457031	2121.978027	1.201040
420.320526	1247.424805	16596.173828	2182.993408	1.214997
420.681396	1444.029785	17007.462891	2397.677002	1.212718
421.042145	1283.582031	17558.861328	2244.008789	1.229064
421.402924	1215.787231	18078.621094	2182.993408	1.241411
421.763580	1263.243652	18702.333984	2300.504395	1.225636
422.124298	1220.306885	19307.966797	2408.976318	1.182321
422.484894	1312.959839	19463.894531	2413.495850	1.217295
422.845520	1288.101685	19165.597656	2402.196777	1.205384
423.206055	1193.188965	18914.757813	2393.157471	1.169332
423.566589	1270.023071	18465.050781	2314.063477	1.216686
423.927063	1294.881226	18957.693359	2438.354004	1.188834
424.287506	1251.944458	18544.144531	2257.567871	1.235415
424.647949	1288.101685	18754.308594	2332.142090	1.223481
425.008301	1319.739380	19106.841797	2361.519775	1.232329
425.368652	1288.101685	19185.935547	2370.559082	1.218390
425.728943	1199.968506	18713.632813	2266.607178	1.215360
426.089203	1263.243652	18876.339844	2384.118164	1.196279
426.449432	1195.448853	18550.925781	2305.024170	1.194280
426.809601	1276.802612	18498.949219	2411.236084	1.181308
427.169739	1281.322266	17967.888672	2286.945557	1.219932
427.529846	1274.542725	18236.808594	2436.094238	1.164445
427.889954	1405.612793	17857.158203	2445.133545	1.199373
428.250000	1317.479492	17357.736328	2210.111328	1.254539
428.609985	1285.841919	16957.746094	2239.489258	1.215734
428.969940	1285.841919	16476.402344	2232.709717	1.205284
429.329865	1367.195679	16404.087891	2207.851563	1.252540
429.689789	1383.014526	16155.507813	2275.646484	1.218781
430.049622	1353.636719	16119.350586	2185.253418	1.249331
430.409454	1288.101685	15873.029297	2234.969482	1.187615
430.769226	1425.951172	15766.817383	2187.513184	1.274870
431.128937	1317.479492	15380.386719	2210.111328	1.197403
431.488678	1303.920532	15764.557617	2180.733643	1.217280
431.848328	1279.062378	15466.259766	2149.095947	1.212361
432.207947	1276.802612	15588.291016	2180.733643	1.199550
432.567566	1274.542725	15848.170898	2140.056641	1.226294
432.927124	1206.747925	15918.225586	2291.465088	1.132340
433.286621	1222.566772	16218.783203	2178.473877	1.195566
433.646118	1299.400879	16462.843750	2273.386475	1.192245
434.005554	1227.086426	16419.908203	2189.772949	1.198153
434.364960	1344.597412	16749.841797	2244.008789	1.233710
434.724335	1310.700073	16521.599609	2273.386475	1.198670
435.083649	1358.156372	16487.703125	2334.401855	1.190267
435.442932	1227.086426	16304.656250	2201.072021	1.189779
435.802216	1319.739380	16155.507813	2264.347168	1.196059
436.161407	1340.077759	16214.262695	2225.930176	1.225072
436.520630	1279.062378	16216.523438	2185.253418	1.217057
436.879761	1202.228271	16191.665039	2307.283936	1.132401
437.238831	1281.322266	16810.857422	2259.827637	1.200595
437.597931	1238.385498	16501.261719	2180.733643	1.209425
437.956940	1337.817993	16668.488281	2259.827637	1.220826
438.315948	1272.282959	17007.462891	2298.244629	1.185741
438.674896	1308.440186	16783.740234	2275.646484	1.204120
439.033844	1288.101685	16523.859375	2275.646484	1.188307
439.392700	1333.298340	16713.685547	2180.733643	1.258861
439.751556	1229.346191	17034.580078	2244.008789	1.192479
440.110352	1260.983765	17556.601563	2262.087402	1.211592
440.469116	1224.826538	17940.771484	2298.244629	1.192362
440.827850	1270.023071	18006.306641	2271.126709	1.223180
441.186554	1306.180420	18865.041016	2490.330078	1.171090
441.545197	1267.763306	18978.033203	2352.480469	1.212909
441.903809	1315.219727	19283.109375	2492.589844	1.183584
442.262390	1312.959839	19045.826172	2336.661865	1.238605
442.620941	1263.243652	18781.427734	2454.172852	1.167603
442.979462	1251.944458	18471.830078	2289.205322	1.220142
443.337921	1346.857300	18315.902344	2334.401855	1.235101
443.696350	1240.645386	18006.306641	2318.583252	1.191827
444.054718	1193.188965	17974.667969	2282.425781	1.187708
444.413086	1362.676025	18623.240234	2501.629150	1.180549
444.771423	1335.558105	18686.513672	2481.290771	1.180240
445.129669	1380.754639	18205.171875	2352.480469	1.238396
445.487915	1283.582031	17036.839844	2178.473877	1.245600
445.846130	1242.905151	17909.134766	2271.126709	1.209751
446.204285	1181.889893	17696.710938	2336.661865	1.155378
446.562408	1310.700073	18894.417969	2393.157471	1.210700
446.920532	1349.117065	19287.628906	2445.133545	1.213969
447.278595	1367.195679	20202.859375	2458.692383	1.236959
447.636566	1297.140991	20580.250000	2476.770996	1.213431
447.994568	1342.337646	21095.490234	2630.439453	1.185686
448.352509	1301.660645	21054.814453	2587.502686	1.186449
448.710419	1328.778687	20566.691406	2415.755615	1.247938
449.068237	1240.645386	20494.376953	2501.629150	1.183805
449.426056	1294.881226	20408.503906	2485.810303	1.205457
449.783844	1312.959839	19820.947266	2427.054932	1.220437
450.141602	1274.542725	19940.718750	2481.290771	1.189439
450.499329	1301.660645	19705.697266	2519.707764	1.179249
450.856964	1301.660645	18946.394531	2460.952393	1.182422
451.214630	1236.125732	18747.529297	2366.039551	1.190276
451.572235	1301.660645	18505.728516	2359.260010	1.211310
451.929779	1242.905151	18569.003906	2386.377930	1.180475
452.287323	1254.204346	18666.175781	2436.094238	1.168271
452.644806	1317.479492	18582.562500	2408.976318	1.199146
453.002258	1283.582031	18526.066406	2440.613770	1.173255
453.359650	1349.117065	18259.406250	2488.070313	1.171645
453.717010	1351.376953	18148.675781	2460.952393	1.180083
454.074341	1294.881226	17961.109375	2361.519775	1.193820
454.431641	1335.558105	17567.900391	2309.543701	1.221829
454.788910	1238.385498	17439.089844	2216.890869	1.218971
455.146118	1292.621338	17201.808594	2314.063477	1.192434
455.503296	1285.841919	16921.589844	2325.362549	1.177286
455.860443	1270.023071	17353.216797	2293.725098	1.196199
456.217560	1256.464111	16752.101563	2259.827637	1.188751
456.574615	1360.416260	17136.273438	2307.283936	1.221704
456.931641	1396.573486	16996.164063	2431.574463	1.178172
457.288635	1306.180420	17075.257813	2375.078857	1.168870
457.645599	1247.424805	16833.455078	2255.307861	1.189325
458.002502	1353.636719	17070.738281	2379.598389	1.185241
458.359375	1254.204346	17143.052734	2298.244629	1.182375
458.716217	1260.983765	17848.119141	2341.181396	1.186268
459.073029	1276.802612	18921.537109	2334.401855	1.222294
459.429779	1276.802612	19861.625000	2524.227539	1.173144
459.786499	1331.038452	20770.076172	2481.290771	1.227882
460.143219	1283.582031	22327.097656	2616.880371	1.198191
460.499847	1288.101685	22150.830078	2580.723145	1.207900
460.856476	1319.739380	23165.492188	2655.297363	1.213704
461.213043	1333.298340	23000.525391	2714.052979	1.195687
461.569550	1247.424805	22803.919922	2605.581299	1.200628
461.926056	1355.896606	22618.615234	2648.518066	1.216147
462.282501	1301.660645	21454.802734	2598.801758	1.191356
462.638916	1312.959839	20761.037109	2555.864990	1.194439
462.995331	1265.503418	20044.671875	2571.683838	1.157673
463.351654	1333.298340	19918.121094	2449.653076	1.221356
463.707947	1301.660645	19224.353516	2490.330078	1.178342
464.064209	1346.857300	18747.529297	2494.849609	1.180627
464.420441	1303.920532	18630.019531	2492.589844	1.163640
464.776642	1317.479492	18379.177734	2463.212158	1.172939
465.132782	1324.259033	18157.714844	2418.015625	1.187253
465.488892	1342.337646	18230.029297	2440.613770	1.186859
465.844971	1328.778687	18442.453125	2431.574463	1.190848
466.201019	1258.723999	18517.027344	2377.338623	1.188318
466.557007	1285.841919	18907.978516	2343.441162	1.221737
466.912964	1297.140991	19228.873047	2420.275391	1.203191
467.268890	1233.865845	19102.322266	2422.535156	1.177026
467.624756	1285.841919	19172.376953	2490.330078	1.171724
467.980591	1279.062378	19407.400391	2427.054932	1.198419
468.336426	1349.117065	19441.296875	2492.589844	1.199265
468.692169	1292.621338	19364.462891	2463.212158	1.188597
469.047913	1290.361572	18887.638672	2343.441162	1.222984
469.403625	1270.023071	18729.451172	2363.779785	1.203109
469.759247	1197.708618	18453.751953	2329.882324	1.183028
470.114838	1227.086426	18300.083984	2329.882324	1.189815
470.470459	1229.346191	18309.123047	2354.740479	1.181177
470.825958	1270.023071	18223.250000	2347.960938	1.196659
471.181488	1276.802612	18318.162109	2395.417236	1.182824
471.536926	1258.723999	18293.304688	2366.039551	1.187060
471.892365	1231.606079	18065.062500	2366.039551	1.171394
472.247742	1373.975220	17859.417969	2429.314697	1.193708
472.603058	1258.723999	18770.128906	2350.220703	1.205299
472.958374	1401.093140	18964.472656	2350.220703	1.267283
473.313629	1333.298340	18806.285156	2433.834229	1.200763
473.668884	1331.038452	18998.371094	2483.550537	1.185525
474.024048	1206.747925	19149.779297	2343.441162	1.198253
474.379211	1236.125732	19344.125000	2408.976318	1.188628
474.734314	1265.503418	19129.441406	2481.290771	1.167120
475.089417	1294.881226	19210.794922	2413.495850	1.204558
475.444458	1199.968506	19158.818359	2336.661865	1.198635
475.799438	1274.542725	19057.126953	2449.653076	1.179916
476.154388	1240.645386	19662.759766	2458.692383	1.179675
476.509308	1290.361572	19789.310547	2458.692383	1.199581
476.864197	1312.959839	20211.898438	2436.094238	1.226006
477.219025	1256.464111	20062.750000	2474.511230	1.188639
477.573822	1186.409546	20815.271484	2485.810303	1.179152
477.928619	1229.346191	21561.015625	2616.880371	1.165929
478.283325	1301.660645	21303.394531	2521.967529	1.214599
478.638000	1249.684692	22144.050781	2573.943604	1.198056
478.992676	1193.188965	22232.183594	2526.487305	1.198098
479.347260	1453.069214	22957.587891	2793.146973	1.205400
479.701843	1247.424805	22641.212891	2571.683838	1.208315
480.056366	1233.865845	22826.519531	2625.919678	1.190650
480.410858	1315.219727	23777.906250	2698.234131	1.210635
480.765320	1312.959839	24019.707031	2747.950439	1.199306
481.119751	1193.188965	24713.474609	2736.651123	1.182947
481.474091	1283.582031	25710.058594	2802.186279	1.206416
481.828430	1260.983765	26891.949219	2890.319580	1.196754
482.182709	1265.503418	28458.009766	2982.972412	1.199560
482.536987	1283.582031	30523.492188	3093.704102	1.208268
482.891174	1342.337646	33741.484375	3272.230469	1.225000
483.245361	1281.322266	38256.621094	3550.189209	1.212103
483.599518	1328.778687	43883.593750	3923.060791	1.214931
483.953644	1301.660645	48767.078125	4325.310059	1.195846
484.307678	1281.322266	52479.976563	4478.978516	1.204427
484.661713	1281.322266	54543.199219	4770.496094	1.183694
485.015686	1274.542725	55408.714844	4933.203613	1.170149
485.369659	1202.228271	54757.882813	4752.417480	1.178554
485.723572	1256.464111	53241.539063	4727.559570	1.175412
486.077423	1218.047119	50204.332031	4309.491211	1.199913
486.431274	1272.282959	47503.835938	4182.940918	1.200947
486.785034	1263.243652	46335.503906	4033.792236	1.211344
487.138794	1256.464111	45555.863281	3977.296631	1.211696
487.492523	1346.857300	46344.542969	4135.484375	1.207800
487.846191	1199.968506	47345.648438	4194.240234	1.187840
488.199829	1301.660645	48001.000000	4243.956055	1.200624
488.553436	1317.479492	48066.535156	4271.074219	1.199422
488.906982	1267.763306	47481.238281	4117.405762	1.209978
489.260529	1387.534180	46385.222656	4164.862305	1.209563
489.613983	1303.920532	44532.164063	3945.658936	1.213878
489.967438	1355.896606	42177.421875	3830.407715	1.217400
490.320831	1283.582031	40224.929688	3744.534424	1.199308
490.674194	1342.337646	39479.187500	3604.425049	1.226835
491.027527	1267.763306	39725.507813	3701.597656	1.198693
491.380798	1258.723999	40505.148438	3778.431885	1.192450
491.734070	1321.999146	42150.304688	3916.281250	1.196944
492.087250	1281.322266	43009.039063	3986.335938	1.188255
492.440430	1265.503418	43413.546875	3859.785645	1.210760
492.793549	1272.282959	42929.945313	3889.163330	1.201911
493.146637	1321.999146	41447.500000	3882.383789	1.195115
493.499695	1218.047119	39431.730469	3588.606201	1.207368
493.852692	1229.346191	36561.750000	3484.654297	1.194967
494.205658	1236.125732	34193.453125	3455.276367	1.171765
494.558594	1297.140991	32313.275391	3294.828613	1.191060
494.911499	1319.739380	30566.427734	3132.121094	1.207827
495.264374	1220.306885	29016.187500	2998.791260	1.193930
495.617188	1326.518799	28387.955078	3028.168945	1.201481
495.969940	1256.464111	27972.146484	2888.059570	1.214154
496.322693	1294.881226	27734.865234	2973.933105	1.197197
496.675385	1308.440186	28028.642578	3166.018555	1.157893
497.028015	1407.872559	27940.507813	3111.782715	1.192334
497.380676	1272.282959	28012.822266	3109.522705	1.163004
497.733246	1279.062378	27981.185547	3066.586182	1.174294
498.085785	1945.711548	28643.314453	3746.794189	1.170939
498.438263	1364.935913	28028.642578	3098.223633	1.187050
498.790710	1272.282959	27583.455078	3037.208252	1.173414
499.143158	1333.298340	27192.505859	3107.262939	1.163670
499.495544	1297.140991	26792.515625	3016.869873	1.171001
499.847870	1215.787231	26507.777344	2930.996338	1.168666
500.200165	1270.023071	25782.373047	2982.972412	1.155640
500.552429	1267.763306	25590.287109	2763.769287	1.211075
500.904663	1310.700073	24869.402344	2910.657959	1.168043
501.256866	1294.881226	24699.916016	2919.697266	1.158505
501.609009	1224.826538	24401.619141	2885.799805	1.144691
501.961090	1247.424805	24141.738281	2750.210205	1.182831
502.313171	1281.322266	24121.400391	2851.902344	1.162637
502.665253	1222.566772	23635.537109	2752.469971	1.165835
503.017181	1220.306885	23913.496094	2865.461426	1.139689
503.369110	1188.669312	23603.900391	2836.083740	1.133740
503.721069	1245.165039	23843.441406	2885.799805	1.139063
504.072937	1317.479492	23927.054688	2881.280273	1.160111
504.424774	1317.479492	24010.667969	2863.201660	1.166764
504.776520	1254.204346	24035.527344	2901.618652	1.140776
505.128265	1177.370239	23920.275391	2836.083740	1.137074
505.480042	1263.243652	24232.130859	2892.579346	1.149129
505.831665	1281.322266	24046.826172	2937.775879	1.138098
506.183289	1220.306885	23558.703125	2917.437500	1.119337
506.534882	1317.479492	23949.652344	2908.398193	1.153078
506.886505	1263.243652	23395.996094	2867.721191	1.139702
507.237946	1197.708618	23728.189453	2838.343506	1.137758
507.589417	1202.228271	23495.427734	2885.799805	1.121941
507.940857	1340.077759	23870.558594	3134.380859	1.098875
508.292297	1199.968506	23890.898438	2946.815186	1.113598
508.643616	1292.621338	24143.998047	2992.011719	1.128619
508.994904	1240.645386	24401.619141	2953.594727	1.131012
509.346191	1376.234985	24641.160156	3098.223633	1.130671
509.697479	1220.306885	24828.726563	3010.090332	1.120266
510.048645	1326.518799	24948.496094	3129.861328	1.117238
510.399780	1294.881226	25375.603516	3251.891846	1.090076
510.750916	1297.140991	25113.464844	3179.577393	1.102154
511.102051	1281.322266	25502.154297	3211.215088	1.098656
511.453033	1312.959839	26010.615234	3272.230469	1.100561
511.804016	1353.636719	25592.546875	3215.734619	1.114511
512.154968	1236.125732	25814.011719	3297.088379	1.076474
512.505920	1270.023071	26214.000000	3324.206299	1.084327
512.856750	1297.140991	26245.638672	3290.309082	1.097500
513.207581	1220.306885	26295.353516	3290.309082	1.083271
513.558411	1254.204346	26143.945313	3211.215088	1.104427
513.909180	1367.195679	26055.812500	3385.221680	1.087570
514.259888	1276.802612	25915.703125	3527.590820	1.039287
514.610535	1229.346191	25673.902344	3373.922607	1.056841
514.961182	1224.826538	25348.486328	3297.088379	1.065999
515.311829	1258.723999	25332.667969	3312.907227	1.068908
515.662354	1297.140991	25411.761719	3358.103760	1.068210
516.012878	1272.282959	25377.863281	3396.520996	1.054914
516.363281	1324.259033	25305.548828	3443.977295	1.053594
516.713745	1274.542725	25574.468750	3362.623535	1.065858
517.064209	1211.267578	26051.292969	3504.992676	1.034611
517.414490	1238.385498	26598.171875	3642.842041	1.023129
517.764832	1265.503418	27418.488281	3606.684814	1.048086
518.115173	1281.322266	28010.562500	3575.047363	1.066445
518.465393	1202.228271	28799.242188	3925.320557	1.005800
518.815552	1195.448853	29954.015625	3961.477783	1.016911
519.165710	1328.778687	30457.957031	4135.484375	1.016131
519.515869	1236.125732	30961.898438	4137.744141	1.010493
519.865967	1231.606079	30222.933594	4011.194092	1.018288
520.216003	1263.243652	29994.691406	4063.170166	1.011211
520.565918	1319.739380	29429.734375	4151.303223	0.996834
520.915955	1342.337646	29296.404297	4045.091309	1.014639
521.265869	1283.582031	28473.828125	3977.296631	1.004062
521.615723	1324.259033	28116.775391	3986.335938	1.002793
521.965576	1383.014526	27725.824219	4094.807617	0.987406
522.315369	1279.062378	27741.644531	3986.335938	0.990100
522.665161	1285.841919	27113.412109	4002.154785	0.978104
523.014832	1333.298340	27545.039063	4099.327148	0.976639
523.364502	1242.905151	27768.761719	4036.052002	0.977576
523.714172	1328.778687	27784.580078	4024.752930	0.991805
524.063782	1340.077759	28222.986328	4284.633301	0.960456
524.413330	1294.881226	28970.990234	4252.995605	0.971090
524.762817	1358.156372	29712.212891	4458.639648	0.961186
525.112366	1317.479492	30656.822266	4497.057129	0.965081
525.461792	1299.400879	32078.253906	4772.755859	0.947503
525.811157	1321.999146	32787.839844	5043.935059	0.927070
526.160522	1306.180420	34349.378906	4867.668457	0.967451
526.509827	1308.440186	35757.253906	5292.516113	0.936847
526.859131	1245.165039	36710.898438	5287.996582	0.943123
527.208313	1242.905151	38177.527344	5525.278320	0.935749
527.557495	1335.558105	40062.222656	5803.237305	0.937928
527.906738	1251.944458	43029.378906	6112.833496	0.934226
528.255859	1218.047119	46410.078125	6666.491699	0.918789
528.604919	1184.149658	49458.585938	7256.306641	0.900374
528.953918	1260.983765	52177.160156	7570.422363	0.906865
529.302917	1272.282959	53580.511719	8112.781250	0.883482
529.651917	1369.455566	54023.437500	8167.017090	0.889078
530.000793	1283.582031	53585.031250	8033.687012	0.889203
530.349609	1344.597412	51668.699219	7968.152344	0.880685
530.698547	1378.494873	49207.746094	7267.605469	0.909644
531.047302	1405.612793	45621.398438	6985.126953	0.898981
531.396057	1301.660645	43074.574219	6666.491699	0.891339
531.744751	1342.337646	41194.398438	6329.777344	0.902573
532.093445	1256.464111	39768.445313	6081.196289	0.902123
532.442139	1373.975220	39142.472656	6144.471191	0.898566
532.790710	1297.140991	39508.566406	6155.770508	0.895679
533.139160	1274.542725	40638.480469	6402.091797	0.885189
533.487732	1321.999146	41207.957031	6408.871094	0.894369
533.836243	1294.881226	41955.960938	6571.578613	0.886817
534.184631	1222.566772	42132.226563	6510.563477	0.888535
534.533020	1292.621338	41852.007813	6560.279785	0.886474
534.881348	1242.905151	40270.128906	6359.154785	0.882416
535.229736	1256.464111	39226.085938	6144.471191	0.890304
535.577942	1290.361572	37474.722656	5970.464355	0.888265
535.926086	1364.935913	36496.214844	5828.095215	0.896052
536.274353	1227.086426	35935.777344	5895.890137	0.871233
536.622498	1319.739380	35895.101563	5941.086914	0.873998
536.970642	1263.243652	35626.183594	5961.425293	0.864161
537.318665	1215.787231	35508.671875	5703.804688	0.883149
537.666687	1272.282959	34982.132813	5814.536621	0.870485
538.014709	1274.542725	34179.894531	5631.490234	0.878084
538.362610	1224.826538	33452.226563	5563.695801	0.870849
538.710510	1312.959839	32247.740234	5389.688965	0.880135
539.058411	1249.684692	31646.625000	5355.791504	0.869400
539.406250	1236.125732	31662.445313	5382.909180	0.865538
539.753967	1206.747925	31522.335938	5504.939941	0.848380
540.101746	1242.905151	31935.884766	5319.634277	0.876727
540.449463	1227.086426	32912.128906	5606.632324	0.859425
540.797119	1364.935913	35065.746094	5909.449219	0.870153
541.144714	1272.282959	37388.847656	6356.895020	0.851449
541.492249	1324.259033	39897.257813	6537.681152	0.869161
541.839844	1270.023071	41327.726563	6682.310059	0.869305
542.187378	1193.188965	42251.996094	7190.771484	0.835430
542.534790	1290.361572	42242.957031	7064.221191	0.850815
542.882202	1202.228271	42518.656250	6994.166504	0.853299
543.229553	1238.385498	40814.746094	6865.356445	0.847161
543.576965	1220.306885	39560.542969	6463.106934	0.864092
543.924194	1258.723999	37583.191406	6284.580566	0.858989
544.271423	1220.306885	35721.093750	5984.023438	0.859883
544.618652	1317.479492	34869.140625	5859.732910	0.868443
544.965881	1310.700073	32943.765625	5710.584473	0.856700
545.312988	1267.763306	31626.287109	5502.680176	0.855436
545.660034	1346.857300	30930.259766	5565.955566	0.845828
546.007141	1258.723999	30297.509766	5428.105957	0.842907
546.354126	1213.527466	29411.656250	5310.594727	0.837747
546.701111	1290.361572	29257.988281	5213.422363	0.853031
547.048035	1233.865845	29025.226563	5278.957520	0.836981
547.394836	1294.881226	29093.021484	5125.289063	0.860771
547.741699	1224.826538	28467.048828	5014.557617	0.856634
548.088562	1283.582031	27755.203125	5082.352539	0.843138
548.435303	1258.723999	27468.205078	5028.116211	0.842187
548.781921	1265.503418	26247.898438	4910.605469	0.835924
549.128662	1206.747925	25780.113281	4738.858398	0.842430
549.475342	1326.518799	24693.136719	4537.733887	0.861926
549.821899	1294.881226	23692.033203	4379.545898	0.860985
550.168457	1373.975220	23294.302734	4356.947754	0.866198
550.515015	1385.274292	22641.212891	4372.766602	0.852174
550.861511	1297.140991	22270.601563	4314.010742	0.842114
551.207886	1263.243652	21545.197266	4262.034668	0.830164
551.554260	1389.793945	21594.912109	4345.648438	0.834778
551.900635	1310.700073	21581.353516	4289.152832	0.832877
552.247009	1184.149658	21938.406250	4216.838379	0.835279
552.593262	1351.376953	21418.646484	4205.539063	0.847010
552.939392	1328.778687	21970.044922	4124.185547	0.868291
553.285645	1245.165039	21771.179688	4262.034668	0.832748
553.631775	1218.047119	21990.382813	4185.200684	0.845145
553.977905	1204.488159	21789.257813	4158.083008	0.843195
554.323975	1251.944458	21585.873047	4056.390625	0.860374
554.669983	1263.243652	21432.205078	4097.067383	0.852311
555.015991	1220.306885	21120.349609	4024.752930	0.851007
555.361877	1270.023071	20801.712891	4020.233398	0.851374
555.707825	1247.424805	20704.541016	3938.879639	0.859091
556.053711	1229.346191	20365.566406	3911.761719	0.853330
556.399536	1265.503418	20241.275391	3909.501709	0.855938
556.745239	1242.905151	19750.892578	3947.918945	0.835190
557.091003	1215.787231	19518.130859	3782.951416	0.853053
557.436707	1238.385498	19637.902344	3805.549805	0.855353
557.782410	1279.062378	19452.595703	3724.195801	0.871137
558.127991	1276.802612	19357.683594	3821.368408	0.851606
558.473511	1301.660645	19283.109375	3724.195801	0.870555
558.819092	1233.865845	19088.763672	3665.440430	0.865870
559.164612	1254.204346	18921.537109	3701.597656	0.858467
559.510010	1263.243652	18887.638672	3782.951416	0.844764
559.855408	1211.267578	18957.693359	3638.322510	0.864031
560.200806	1310.700073	18926.056641	3674.479736	0.872284
560.546143	1197.708618	19002.890625	3651.881348	0.860641
560.891357	1299.400879	18955.433594	3658.660889	0.874117
561.236633	1321.999146	18944.134766	3730.975342	0.864226
561.581848	1233.865845	19066.166016	3749.053955	0.850637
561.927002	1197.708618	19070.685547	3685.778809	0.856334
562.272095	1254.204346	19285.369141	3726.455811	0.862931
562.617126	1326.518799	19054.867188	3627.023438	0.886845
562.962219	1367.195679	19355.423828	3753.573730	0.877249
563.307251	1209.007813	18853.742188	3649.621582	0.859116
563.652161	1279.062378	19156.558594	3660.920654	0.875391
563.997009	1186.409546	18921.537109	3636.062744	0.859730
564.341919	1308.440186	19054.867188	3577.307129	0.893302
564.686768	1333.298340	18826.623047	3676.739502	0.873018
565.031555	1288.101685	19018.708984	3593.125977	0.886048
565.376282	1450.809326	19540.728516	3753.573730	0.895187
565.721008	1355.896606	19820.947266	3749.053955	0.887379
566.065674	1251.944458	19802.869141	3672.219971	0.884501
566.410278	1317.479492	20514.714844	3753.573730	0.896545
566.754822	1220.306885	20887.585938	3717.416504	0.896307
567.099365	1265.503418	20641.265625	3701.597656	0.900565
567.443909	1303.920532	20713.580078	3674.479736	0.913167
567.788330	1299.400879	20654.824219	3875.604248	0.875823
568.132751	1231.606079	20553.132813	3613.464355	0.909126
568.477112	1218.047119	20419.802734	3669.959961	0.893836
568.821533	1240.645386	19823.207031	3484.654297	0.918081
569.165771	1288.101685	19958.796875	3636.062744	0.900470
569.510010	1331.038452	19667.279297	3649.621582	0.898088
569.854248	1303.920532	19839.027344	3561.488281	0.914354
570.198364	1279.062378	19581.406250	3475.614990	0.920765
570.542542	1270.023071	19778.011719	3434.937988	0.931918
570.886536	1233.865845	19839.027344	3491.433594	0.915993
571.230591	1274.542725	19834.507813	3462.055908	0.928626
571.574646	1263.243652	20250.314453	3568.267822	0.915782
571.918518	1197.708618	20614.148438	3588.606201	0.909609
572.262451	1265.503418	20826.570313	3486.914063	0.944764
572.606323	1306.180420	20851.429688	3615.724121	0.927515
572.950195	1333.298340	20767.816406	3593.125977	0.934498
573.293945	1301.660645	21025.435547	3640.582275	0.925974
573.637695	1220.306885	20742.957031	3570.527588	0.919430
573.981384	1256.464111	20424.322266	3486.914063	0.934181
574.325134	1229.346191	20503.416016	3491.433594	0.930464
574.668701	1222.566772	20243.535156	3385.221680	0.944245
575.012268	1267.763306	20243.535156	3376.182373	0.954243
575.355774	1197.708618	20632.226563	3371.662842	0.951323
575.699341	1229.346191	20302.291016	3401.040527	0.943619
576.042725	1308.440186	20019.812500	3364.883301	0.958989
576.386169	1299.400879	19712.476563	3333.245850	0.956809
576.729553	1254.204346	19429.998047	3360.363770	0.936002
577.072876	1373.975220	19373.501953	3401.040527	0.948393
577.416138	1213.527466	18993.851563	3222.514160	0.946963
577.759399	1288.101685	18465.050781	3159.239014	0.962840
578.102600	1260.983765	18078.621094	3073.365479	0.967515
578.445801	1288.101685	18013.085938	3028.168945	0.982800
578.788940	1204.488159	17416.492188	3019.129639	0.951046
579.131897	1233.865845	17301.240234	2980.712646	0.963690
579.474976	1328.778687	17251.523438	3062.066406	0.963147
579.817993	1267.763306	16596.173828	2964.893799	0.955782
580.160950	1227.086426	16460.583984	2885.799805	0.963028
580.503845	1258.723999	16293.357422	2998.791260	0.936527
580.846680	1279.062378	16252.680664	2874.500732	0.972447
581.189514	1279.062378	16178.105469	2888.059570	0.966603
581.532349	1355.896606	15931.785156	2831.563965	0.994647
581.875061	1159.291626	15714.840820	2734.391357	0.965721
582.217773	1256.464111	15511.457031	2799.926514	0.965471
582.560425	1403.352905	15730.660156	2894.839111	0.982545
582.903076	1265.503418	15712.581055	2736.651123	0.992124
583.245667	1242.905151	15454.960938	2784.107666	0.964797
583.588135	1242.905151	15592.810547	2770.548584	0.972827
583.930664	1240.645386	15197.340820	2662.076904	0.992057
584.273071	1281.322266	15269.655273	2714.052979	0.989601
584.615479	1272.282959	15335.190430	2795.406738	0.965340
584.957825	1306.180420	15204.120117	2727.611816	0.990224
585.300232	1265.503418	15326.150391	2858.681885	0.945741
585.642517	1240.645386	14752.154297	2657.557373	0.979361
585.984680	1294.881226	15007.515625	2766.029053	0.969465
586.326843	1297.140991	14867.406250	2743.430664	0.972333
586.669067	1328.778687	14908.083008	2795.406738	0.966558
587.011230	1349.117065	14786.051758	2623.659912	1.022946
587.353271	1209.007813	14919.381836	2763.769287	0.945386
587.695251	1245.165039	14682.099609	2691.454590	0.968045
588.037231	1267.763306	14905.823242	2592.022217	1.012780
588.379211	1281.322266	14781.532227	2718.572510	0.972808
588.721069	1285.841919	15054.971680	2714.052979	0.984114
589.062927	1247.424805	15118.247070	2614.620605	1.006271
589.404785	1317.479492	15165.703125	2808.965820	0.967775
589.746582	1283.582031	15161.183594	2720.832520	0.984782
590.088257	1229.346191	15271.915039	2639.478760	0.998187
590.429932	1240.645386	15430.102539	2732.131592	0.978347
590.771606	1292.621338	15344.229492	2657.557373	1.012614
591.113220	1315.219727	15477.559570	2673.375977	1.018185
591.454773	1362.676025	15407.504883	2784.107666	0.994790
591.796265	1251.944458	15244.796875	2576.203369	1.023933
592.137817	1328.778687	14869.666016	2623.659912	1.019417
592.479248	1283.582031	14758.934570	2695.974365	0.979585
592.820618	1231.606079	14833.508789	2653.037598	0.980874
593.161926	1256.464111	14636.903320	2603.321289	0.997149
593.503296	1204.488159	15174.742188	2673.375977	0.978216
593.844604	1170.590698	14684.359375	2576.203369	0.982911
594.185791	1236.125732	14883.224609	2503.888916	1.032002
594.526917	1267.763306	15224.458984	2560.384766	1.033311
594.868103	1290.361572	15138.584961	2648.518066	1.008444
595.209229	1209.007813	15285.473633	2668.856445	0.984186
595.550232	1254.204346	15351.008789	2738.911133	0.977480
595.891235	1245.165039	15615.409180	2777.328125	0.972159
596.232178	1267.763306	16103.531250	2747.950439	1.000993
596.573181	1328.778687	16492.222656	2822.524658	1.006521
596.914063	1279.062378	16772.441406	2720.832520	1.031250
597.254883	1283.582031	16677.527344	2811.225586	1.003328
597.595703	1349.117065	16996.164063	2781.847900	1.038268
597.936462	1292.621338	16998.423828	2824.784424	1.010755
598.277161	1204.488159	16779.220703	2770.548584	0.997612
598.617798	1297.140991	16607.472656	2838.343506	0.997125
598.958435	1206.747925	16178.105469	2664.336670	1.011626
599.299072	1301.660645	15649.306641	2549.085449	1.060766
599.639587	1272.282959	15036.892578	2641.738525	1.002216
599.980103	1290.361572	14987.176758	2680.155518	0.993669
600.320557	1321.999146	14566.848633	2643.998291	1.000816
600.661072	1258.723999	14469.675781	2508.408691	1.024134
601.001404	1238.385498	14203.016602	2569.424072	0.988569
601.341675	1319.739380	14196.237305	2508.408691	1.034737
601.681946	1249.684692	14119.403320	2519.707764	1.005757
602.022278	1303.920532	14080.986328	2479.031006	1.036352
602.362427	1229.346191	13902.459961	2508.408691	0.995992
602.702576	1195.448853	14693.399414	2555.864990	0.996596
603.042725	1218.047119	14582.667969	2582.982910	0.990844
603.382813	1319.739380	15077.570313	2587.502686	1.035512
603.722839	1294.881226	15206.379883	2614.620605	1.022886
604.062805	1260.983765	15651.566406	2732.131592	0.990422
604.402771	1392.053833	16404.087891	2888.059570	1.001506
604.742737	1279.062378	16419.908203	2657.557373	1.040745
605.082581	1260.983765	16573.576172	2677.895752	1.033706
605.422363	1247.424805	16937.408203	2777.328125	1.010959
605.762146	1279.062378	16598.433594	2756.989746	1.015588
606.101929	1256.464111	16630.072266	2623.659912	1.050945
606.441589	1290.361572	16345.333008	2682.415283	1.034024
606.781189	1254.204346	15967.942383	2621.400146	1.031892
607.120850	1247.424805	15547.614258	2625.919678	1.015937
607.460388	1281.322266	15052.711914	2598.801758	1.019234
607.799927	1256.464111	14826.728516	2540.046143	1.024165
608.139404	1233.865845	14406.401367	2515.188232	1.012011
608.478821	1276.802612	14424.479492	2458.692383	1.046272
608.818298	1272.282959	14327.306641	2549.085449	1.009654
609.157593	1344.597412	14654.982422	2494.849609	1.063398
609.496887	1326.518799	15301.292969	2526.487305	1.066175
609.836182	1274.542725	14966.837891	2524.227539	1.039676
610.175415	1272.282959	15567.952148	2619.140137	1.025883
610.514526	1331.038452	15484.338867	2603.321289	1.046274
610.853699	1247.424805	15088.869141	2569.424072	1.019950
611.192688	1294.881226	14941.980469	2630.439453	1.009377
611.531799	1312.959839	14682.099609	2537.786377	1.038029
611.870850	1398.833252	14483.235352	2578.463379	1.045008
612.209778	1331.038452	13927.317383	2558.124756	1.011367
612.548645	1283.582031	13753.310547	2451.912842	1.028291
612.887573	1283.582031	13852.743164	2390.897705	1.055035
613.226440	1265.503418	13084.402344	2388.637695	1.022145
613.565186	1301.660645	13249.369141	2463.212158	1.012246
613.903931	1312.959839	12887.796875	2445.133545	1.009602
614.242676	1240.645386	12883.277344	2413.495850	0.996809
614.581360	1346.857300	12772.545898	2345.701172	1.058385
614.919983	1281.322266	12451.650391	2359.260010	1.015472
615.258484	1351.376953	12573.680664	2332.142090	1.058517
615.597046	1251.944458	12379.335938	2359.260010	1.002122
615.935547	1301.660645	12259.564453	2325.362549	1.029554
616.273987	1231.606079	12679.892578	2271.126709	1.041907
616.612366	1392.053833	12207.588867	2352.480469	1.051584
616.950806	1315.219727	12171.431641	2205.591797	1.086107
617.289124	1276.802612	12230.187500	2422.535156	0.980465
617.627380	1312.959839	11936.409180	2255.307861	1.052054
617.965515	1263.243652	12261.824219	2305.024170	1.023560
618.303772	1285.841919	12408.713867	2345.701172	1.020969
618.641968	1276.802612	12275.383789	2196.552490	1.077667
618.980042	1303.920532	12212.108398	2180.733643	1.094846
619.318054	1204.488159	12268.604492	2135.537109	1.074944
619.656128	1267.763306	12227.926758	2167.174561	1.085859
619.994080	1279.062378	12406.453125	2264.347168	1.052832
620.331970	1360.416260	12214.368164	2277.906250	1.072987
620.669861	1299.400879	12076.518555	2232.709717	1.062477
621.007751	1238.385498	11965.787109	2203.332031	1.045991
621.345581	1290.361572	12017.763672	2164.914795	1.088708
621.683289	1265.503418	11940.928711	2146.836182	1.083245
622.020996	1346.857300	11918.331055	2169.434570	1.108959
622.358704	1209.007813	11821.158203	2192.032715	1.033239
622.696350	1342.337646	11597.435547	2171.694336	1.092198
623.033875	1344.597412	12038.101563	2192.032715	1.101013
623.371460	1299.400879	11992.905273	2196.552490	1.076254
623.708984	1308.440186	11911.551758	2246.268555	1.053310
624.046448	1335.558105	11613.253906	2234.969482	1.057937
624.383789	1303.920532	11672.009766	2110.678955	1.108955
624.721191	1270.023071	11873.134766	2228.189941	1.043992
625.058533	1236.125732	11778.221680	2135.537109	1.068969
625.395813	1285.841919	11789.520508	2112.938721	1.103785
625.733032	1256.464111	12139.793945	2164.914795	1.078460
626.070190	1310.700073	12209.848633	2164.914795	1.105826
626.407410	1351.376953	12325.099609	2250.788330	1.086396
626.744507	1254.204346	12462.949219	2298.244629	1.030840
627.081543	1240.645386	12817.742188	2164.914795	1.097801
627.418518	1265.503418	12636.956055	2277.906250	1.050463
627.755554	1206.747925	12670.853516	2295.984863	1.022218
628.092529	1349.117065	12960.111328	2341.181396	1.068330
628.429382	1319.739380	12788.364258	2198.812256	1.115487
628.766174	1340.077759	12670.853516	2384.118164	1.035542
629.103027	1319.739380	12499.106445	2357.000244	1.032529
629.439819	1321.999146	12363.516602	2232.709717	1.083648
629.776489	1315.219727	12081.038086	2368.299316	1.009586
630.113159	1260.983765	12042.621094	2185.253418	1.066886
630.449829	1281.322266	12024.542969	2194.292725	1.070678
630.786377	1324.259033	11766.922852	2101.639648	1.128178
631.122925	1380.754639	11916.071289	2354.740479	1.034095
631.459412	1430.470825	11206.485352	2196.552490	1.105887
631.795898	1249.684692	11278.799805	2124.238037	1.059476
632.132324	1306.180420	11195.185547	2212.371338	1.037933
632.468689	1360.416260	11330.775391	2121.978027	1.117006
632.804993	1190.929199	11102.533203	2083.561035	1.045472
633.141296	1238.385498	11057.336914	2040.624390	1.087761
633.477539	1193.188965	11007.620117	2131.017334	1.019742
633.813721	1251.944458	10955.644531	2065.482422	1.076560
634.149841	1258.723999	10964.683594	2101.639648	1.061254
634.485962	1306.180420	11021.179688	2180.733643	1.045657
634.822083	1349.117065	11281.059570	2108.419189	1.116620
635.158020	1331.038452	10989.541992	2176.214111	1.057963
635.494019	1321.999146	10881.070313	2045.144043	1.121190
635.829956	1227.086426	10718.362305	2076.781494	1.048061
636.165894	1188.669312	10575.993164	1945.711548	1.093422
636.501709	1319.739380	10670.906250	2119.718262	1.067787
636.837463	1240.645386	10444.922852	2008.986694	1.078436
637.173279	1306.180420	10476.560547	2106.159424	1.059309
637.509033	1288.101685	10101.429688	2079.041504	1.046996
637.844666	1242.905151	10203.122070	1981.868774	1.083695
638.180237	1407.872559	10162.444336	2027.065430	1.150409
638.515869	1251.944458	9965.839844	1963.790161	1.087826
638.851440	1274.542725	9735.336914	1984.128662	1.076406
639.186890	1265.503418	9638.165039	1932.152588	1.098966
639.522339	1251.944458	9667.542969	1905.034668	1.110112
639.857727	1265.503418	9620.085938	2006.726929	1.051975
640.193176	1380.754639	9617.826172	2088.080811	1.066153
640.528442	1270.023071	9556.810547	1941.191895	1.091554
640.863708	1206.747925	9387.324219	1909.554321	1.065948
641.198914	1220.306885	9324.048828	1873.397095	1.093712
641.534180	1276.802612	9303.709961	1972.829468	1.061922
641.869263	1263.243652	9285.631836	1866.617554	1.123717
642.204346	1303.920532	9143.262695	1823.680908	1.178476
642.539368	1251.944458	9179.419922	1957.010742	1.050905
642.874390	1326.518799	9034.791016	1936.672241	1.101518
643.209412	1276.802612	9059.648438	1911.814209	1.088357
643.544312	1263.243652	9009.932617	1997.687622	1.023157
643.879150	1312.959839	9319.529297	1972.829468	1.083988
644.213989	1328.778687	8849.485352	1859.838135	1.151116
644.548828	1283.582031	8851.745117	1873.397095	1.108275
644.883545	1209.007813	8881.122070	1907.294556	1.040881
645.218262	1206.747925	8664.178711	1830.460327	1.077605
645.552856	1247.424805	8804.288086	1907.294556	1.058883
645.887573	1362.676025	8912.759766	1963.790161	1.098995
646.222107	1364.935913	8826.886719	1866.617554	1.172424
646.556580	1272.282959	8824.626953	1902.774902	1.078402
646.891113	1220.306885	8881.122070	1769.445068	1.144593
647.225586	1229.346191	8908.240234	1830.460327	1.106342
647.559937	1209.007813	8854.004883	1807.862061	1.106056
647.894226	1285.841919	8881.122070	1825.940674	1.148071
648.228577	1353.636719	9098.066406	1828.200562	1.212695
648.562927	1283.582031	8790.729492	1823.680908	1.143002
648.897095	1303.920532	8831.406250	1864.357788	1.128123
649.231262	1290.361572	8854.004883	1814.641602	1.159168
649.565430	1294.881226	8910.500000	1877.916748	1.116010
649.899475	1233.865845	8863.043945	1780.744141	1.144587
650.233521	1378.494873	8978.294922	1846.279175	1.210757
650.567505	1218.047119	8779.430664	1728.768066	1.170418
650.901428	1294.881226	8822.367188	1844.019287	1.136968
651.235413	1224.826538	8564.747070	1737.807495	1.155590
651.569275	1267.763306	8668.698242	1864.357788	1.093607
651.903015	1380.754639	8840.445313	1918.593628	1.142069
652.236816	1245.165039	8679.998047	1744.586914	1.172804
652.570618	1303.920532	8659.659180	1810.121948	1.162303
652.904297	1310.700073	8722.934570	1853.058594	1.135663
653.237915	1328.778687	8691.296875	1773.964722	1.218485
653.571533	1254.204346	8704.856445	1762.665527	1.165936
653.905090	1351.376953	8625.761719	1834.979980	1.177307
654.238586	1181.889893	8442.715820	1844.019287	1.040043
654.572021	1251.944458	8377.180664	1783.004028	1.127656
654.905457	1195.448853	8478.873047	1712.949341	1.148425
655.238892	1276.802612	8560.226563	1814.641602	1.131683
655.572144	1274.542725	8402.039063	1778.484375	1.150557
655.905457	1281.322266	8359.102539	1773.964722	1.157365
656.238708	1288.101685	8255.150391	1834.979980	1.105158
656.571960	1283.582031	8420.118164	1796.562988	1.143386
656.905090	1290.361572	8361.362305	1721.988647	1.214372
657.238159	1224.826538	8239.331055	1760.405762	1.117173
657.571289	1401.093140	8399.779297	1850.798828	1.192088
657.904358	1240.645386	8546.667969	1733.287720	1.171149
658.237305	1238.385498	8334.244141	1746.846802	1.144747
658.570190	1260.983765	8731.973633	1846.279175	1.106003
658.903076	1256.464111	8673.218750	1853.058594	1.094535
659.236023	1265.503418	9048.349609	1783.004028	1.177228
659.568787	1213.527466	9305.969727	1746.846802	1.181092
659.901428	1229.346191	9328.568359	1850.798828	1.115035
660.234192	1213.527466	9253.994141	1850.798828	1.100957
660.566895	1272.282959	9364.725586	1844.019287	1.150884
660.899536	1328.778687	9326.308594	1886.956055	1.156184
661.232056	1294.881226	9310.490234	1907.294556	1.116892
661.564636	1331.038452	9145.522461	1724.248413	1.298276
661.897156	1351.376953	8890.162109	1866.617554	1.165291
662.229553	1265.503418	8752.312500	1746.846802	1.191842
662.561951	1299.400879	8496.952148	1801.082642	1.156756
662.894287	1331.038452	8594.124023	1902.774902	1.103925
663.226685	1281.322266	8361.362305	1728.768066	1.199295
663.558899	1308.440186	8268.708984	1764.925415	1.183199
663.891052	1260.983765	8126.340332	1771.704834	1.128479
664.223328	1351.376953	8106.001465	1724.248413	1.258042
664.555420	1294.881226	7922.955566	1740.067261	1.172846
664.887512	1251.944458	7597.540527	1672.272461	1.178884
665.219543	1315.219727	7730.870117	1785.263794	1.135102
665.551575	1310.700073	7780.586426	1760.405762	1.157968
665.883545	1220.306885	7398.675781	1688.091187	1.120828
666.215454	1260.983765	7561.383301	1681.311768	1.175780
666.547302	1276.802612	7450.651855	1629.335693	1.243356
666.879150	1346.857300	7796.405273	1812.381714	1.141587
667.210938	1294.881226	7409.974609	1762.665527	1.116357
667.542664	1240.645386	7599.800293	1731.027954	1.112864
667.874268	1249.684692	7500.367676	1737.807495	1.107398
668.205994	1342.337646	7545.564453	1694.870728	1.245418
668.537537	1274.542725	7425.793457	1703.910034	1.156134
668.869080	1242.905151	7498.107910	1670.012573	1.165704
669.200562	1306.180420	7443.872070	1674.532227	1.221742
669.532043	1233.865845	7421.273926	1672.272461	1.149632
669.863525	1355.896606	7477.769531	1787.523682	1.151776
670.194824	1231.606079	7470.990234	1746.846802	1.083132
670.526184	1340.077759	7604.319824	1676.792114	1.269607
670.857483	1308.440186	7292.463867	1676.792114	1.210730
671.188660	1283.582031	7525.226074	1665.492920	1.213337
671.519897	1270.023071	7301.502930	1733.287720	1.114595
671.851013	1247.424805	7245.007324	1672.272461	1.149743
672.182129	1279.062378	7177.212402	1697.130493	1.149469
672.513184	1184.149658	7193.031250	1608.997314	1.150560
672.844238	1319.739380	7281.164551	1823.680908	1.072970
673.175171	1281.322266	7222.409180	1670.012573	1.184262
673.506104	1383.014526	7177.212402	1749.106567	1.199403
673.836975	1303.920532	7116.197266	1737.807495	1.126970
674.167786	1254.204346	7055.181641	1629.335693	1.189318
674.498596	1233.865845	6989.646973	1667.752808	1.122728
674.829407	1204.488159	7111.677734	1694.870728	1.080846
675.160034	1154.771851	7025.804199	1649.674194	1.074195
675.490723	1213.527466	7118.457031	1688.091187	1.094920
675.821289	1290.361572	6820.159668	1586.398926	1.271363
676.151917	1312.959839	7028.063965	1690.351074	1.180232
676.482422	1321.999146	6779.482910	1692.610840	1.168073
676.812927	1256.464111	6896.993652	1681.311768	1.123087
677.143311	1326.518799	6971.568359	1674.532227	1.210072
677.473694	1333.298340	6937.670898	1676.792114	1.212608
677.804016	1209.007813	6858.576660	1679.051880	1.079877
678.134338	1283.582031	6849.537598	1692.610840	1.133786
678.464539	1247.424805	6912.812500	1685.831421	1.111353
678.794800	1254.204346	7052.921875	1692.610840	1.121455
679.124878	1315.219727	7197.550781	1708.429688	1.174925
679.455078	1272.282959	7091.338867	1633.855347	1.206657
679.785095	1306.180420	7118.457031	1721.988647	1.145453
680.115173	1265.503418	7202.070801	1618.036621	1.226335
680.445129	1209.007813	7509.407227	1737.807495	1.076077
680.775024	1349.117065	7452.911621	1857.578247	1.079342
681.104919	1233.865845	7403.195313	1615.776733	1.208276
681.434814	1283.582031	7168.173340	1717.468994	1.132340
681.764526	1263.243652	7267.605469	1708.429688	1.129925
682.094360	1193.188965	7364.778320	1721.988647	1.067106
682.424011	1340.077759	7640.477051	1821.421021	1.116913
682.753723	1317.479492	7466.470215	1807.862061	1.098269
683.083313	1247.424805	7238.228027	1701.650146	1.120214
683.412903	1281.322266	7480.029297	1776.224487	1.097782
683.742432	1263.243652	7100.378418	1724.248413	1.102494
684.071899	1331.038452	7057.441406	1801.082642	1.085743
684.401306	1432.730713	7202.070801	1746.846802	1.264036
684.730713	1294.881226	6881.175293	1679.051880	1.162600
685.060059	1265.503418	6910.552734	1780.744141	1.039658
685.389404	1303.920532	6921.852051	1642.894653	1.219410
685.718628	1303.920532	6718.467285	1744.586914	1.089452
686.047852	1247.424805	6671.011230	1731.027954	1.049797
686.376953	1353.636719	6528.642090	1823.680908	1.041772
686.706116	1272.282959	6655.192383	1712.949341	1.086907
687.035156	1290.361572	6587.397461	1706.169800	1.105140
687.364197	1303.920532	6503.783691	1597.698120	1.247973
687.693176	1251.944458	6612.255371	1672.272461	1.105602
688.022156	1340.077759	6727.506836	1807.862061	1.061336
688.351013	1279.062378	6564.799316	1715.209106	1.083473
688.679871	1344.597412	6668.751465	1721.988647	1.149459
689.008606	1335.558105	6637.113770	1697.130493	1.166208
689.337402	1263.243652	6781.742676	1672.272461	1.130067
689.666138	1288.101685	6657.452148	1681.311768	1.135297
689.994751	1272.282959	6677.790527	1683.571533	1.118690
690.323364	1279.062378	6476.666016	1688.091187	1.104049
690.651917	1254.204346	6386.272949	1735.547607	1.027838
690.980469	1326.518799	6384.013184	1789.783447	1.038106
691.308960	1317.479492	6359.154785	1762.665527	1.054033
691.637451	1274.542725	6133.172363	1681.311768	1.077166
691.965759	1294.881226	6304.918945	1755.886108	1.036135
692.294128	1215.787231	6049.558594	1699.390381	0.999797
692.622437	1260.983765	5868.772461	1688.091187	1.032955
692.950684	1317.479492	6038.259277	1776.224487	1.012442
693.278870	1303.920532	6026.960449	1760.405762	1.014795
693.607117	1199.968506	5733.182617	1726.508301	0.934975
693.935120	1274.542725	5907.189453	1660.973267	1.078758
694.263245	1331.038452	5791.937988	1744.586914	1.032896
694.591248	1297.140991	5819.056152	1794.303101	0.958824
694.919250	1346.857300	5798.717773	1749.106567	1.044046
695.247192	1299.400879	5678.946777	1708.429688	1.029675
695.575073	1389.793945	5850.693848	1832.720215	1.003091
695.902893	1274.542725	5798.717773	1794.303101	0.939736
696.230774	1279.062378	5735.442383	1751.366455	0.974761
696.558411	1279.062378	5789.678223	1900.515015	0.860828
696.886169	1290.361572	5769.339844	1746.846802	0.991752
697.213806	1299.400879	5798.717773	1862.097900	0.902872
697.541443	1331.038452	5913.968750	1877.916748	0.923253
697.869019	1288.101685	5873.291992	1796.562988	0.955099
698.196533	1288.101685	6250.683105	1848.538940	0.947181
698.524048	1297.140991	6239.384277	1880.176514	0.928229
698.851501	1303.920532	6576.098145	1970.569702	0.898093
699.178772	1272.282959	6774.963379	2006.726929	0.874616
699.506226	1279.062378	6921.852051	1932.152588	0.936521
699.833435	1353.636719	6951.229980	2090.340576	0.880708
700.160767	1242.905151	6829.199219	2031.585083	0.850223
700.487915	1204.488159	6689.089844	2011.246582	0.832402
700.815063	1260.983765	6628.074219	2004.467041	0.858468
701.142151	1220.306885	6562.539551	2018.026001	0.825873
701.469238	1274.542725	6408.871094	2106.159424	0.790560
701.796265	1303.920532	6345.595703	2015.766235	0.850189
702.123230	1319.739380	6264.242188	2051.923584	0.829502
702.450134	1290.361572	6072.156738	2058.702881	0.794037
702.777039	1299.400879	5981.763672	2045.144043	0.797876
703.103882	1355.896606	5701.544922	1966.050049	0.852616
703.430664	1283.582031	5511.719727	1995.427734	0.773763
703.757385	1301.660645	5437.145020	2031.585083	0.753249
704.084106	1292.621338	5278.957520	2004.467041	0.748188
704.410767	1231.606079	5222.461426	1981.868774	0.725853
704.737366	1254.204346	5256.358887	1932.152588	0.771097
705.063904	1385.274292	5369.350586	2051.923584	0.776430
705.390442	1240.645386	5163.706055	2011.246582	0.706795
705.716919	1231.606079	5123.029297	1938.932129	0.740489
706.043396	1310.700073	5136.588379	2011.246582	0.737295
706.369690	1290.361572	5075.572754	2115.198730	0.661722
706.696106	1315.219727	5186.304199	2119.718262	0.682307
707.022278	1301.660645	5019.077148	2106.159424	0.664716
707.348633	1306.180420	5023.596680	1968.309814	0.749298
707.674805	1236.125732	4885.747070	2092.600342	0.629533
708.000916	1294.881226	4919.644531	2065.482422	0.672450
708.327026	1258.723999	5034.895996	2024.805542	0.692777
708.653076	1177.370239	4962.581543	2079.041504	0.623042
708.979065	1247.424805	4985.179688	2036.104736	0.675710
709.305054	1274.542725	5159.186523	2065.482422	0.691208
709.630920	1281.322266	5066.533691	2092.600342	0.668920
709.956787	1145.732544	5136.588379	2063.222656	0.638465
710.282593	1238.385498	5188.563965	2153.615723	0.635086
710.608459	1263.243652	5145.627441	2083.561035	0.675117
710.934082	1238.385498	5086.872070	2246.268555	0.581880
711.259827	1242.905151	5231.500977	2216.890869	0.612267
711.585449	1209.007813	5342.232422	2158.135254	0.638964
711.911072	1319.739380	5403.248047	2289.205322	0.624501
712.236572	1245.165039	5245.060059	2196.552490	0.623691
712.562073	1319.739380	5477.822266	2277.906250	0.637452
712.887512	1290.361572	5292.516113	2271.126709	0.610729
713.213013	1267.763306	5398.728027	2255.307861	0.621495
713.538330	1272.282959	5355.791504	2311.803711	0.594200
713.863647	1270.023071	5272.177734	2253.048096	0.609729
714.188904	1222.566772	5132.068359	2246.268555	0.581948
714.514099	1346.857300	5376.129883	2271.126709	0.639428
714.839294	1270.023071	5202.123047	2381.858398	0.548584
715.164490	1355.896606	5202.123047	2381.858398	0.573904
715.489502	1315.219727	5123.029297	2311.803711	0.582161
715.814575	1310.700073	4960.321777	2350.220703	0.545415
716.139526	1401.093140	5184.044434	2370.559082	0.591298
716.464539	1260.983765	5010.037598	2230.449951	0.587389
716.789368	1254.204346	5156.926758	2327.622559	0.560599
717.114258	1362.676025	5077.832520	2338.921631	0.580418
717.439026	1242.905151	4908.345703	2325.362549	0.529715
717.763794	1247.424805	4872.188477	2314.063477	0.531262
718.088440	1272.282959	4777.275391	2291.465088	0.536435
718.413208	1263.243652	4765.976563	2332.142090	0.515471
718.737793	1242.905151	4779.535645	2357.000244	0.501667
719.062378	1303.920532	4707.220703	2381.858398	0.499307
719.386841	1263.243652	4659.764648	2275.646484	0.525681
719.711304	1258.723999	4634.906250	2277.906250	0.520174
720.035767	1274.542725	4490.277344	2237.229248	0.523795
720.360168	1328.778687	4614.567871	2234.969482	0.559420
720.684570	1312.959839	4436.041504	2196.552490	0.548331
721.008789	1369.455566	4675.583496	2368.299316	0.519822
721.333069	1283.582031	4478.978516	2336.661865	0.482063
721.657227	1213.527466	4381.805664	2268.866943	0.477431
721.981445	1186.409546	4363.727051	2366.039551	0.430315
722.305481	1270.023071	4379.545898	2284.685791	0.486372
722.629578	1276.802612	4225.877441	2241.749023	0.485183
722.953552	1231.606079	4336.609375	2295.984863	0.464966
723.277588	1297.140991	4243.956055	2293.725098	0.470839
723.601440	1222.566772	4207.798828	2309.543701	0.438758
723.925354	1276.802612	4228.137695	2268.866943	0.473479
724.249146	1310.700073	4239.436523	2454.172852	0.408454
724.572937	1326.518799	4282.373535	2320.843018	0.473155
724.896667	1288.101685	4221.357910	2309.543701	0.458136
725.220398	1303.920532	4214.578613	2250.788330	0.487702
725.543945	1281.322266	4232.657227	2345.701172	0.442922
725.867615	1258.723999	4149.043457	2286.945557	0.448859
726.191101	1297.140991	4232.657227	2354.740479	0.443363
726.514648	1367.195679	4345.648438	2506.148926	0.417485
726.838074	1369.455566	4336.609375	2440.613770	0.442486
727.161499	1215.787231	4338.869141	2359.260010	0.436358
727.484863	1290.361572	4311.750977	2469.991699	0.408461
727.808228	1328.778687	4397.624512	2472.251465	0.428749
728.131470	1328.778687	4436.041504	2386.377930	0.468057
728.454712	1317.479492	4356.947754	2424.794922	0.438526
728.777832	1238.385498	4381.805664	2429.314697	0.421517
729.101013	1209.007813	4478.978516	2488.070313	0.407652
729.424011	1297.140991	4497.057129	2506.148926	0.422709
729.747070	1317.479492	4501.576660	2592.022217	0.397632
730.070068	1270.023071	4569.371582	2519.707764	0.421628
730.393005	1247.424805	4417.962891	2422.535156	0.431054
730.715881	1283.582031	4399.884277	2386.377930	0.451144
731.038757	1292.621338	4431.521973	2499.369385	0.415161
731.361572	1303.920532	4395.364746	2442.873535	0.433656
731.684326	1242.905151	4485.757813	2542.306152	0.397184
732.007019	1249.684692	4578.410645	2555.864990	0.406275
732.329712	1272.282959	4492.537109	2612.360840	0.380760
732.652283	1254.204346	4553.552734	2551.345459	0.405441
732.974854	1256.464111	4485.757813	2567.164063	0.391604
733.297363	1281.322266	4436.041504	2551.345459	0.395149
733.619873	1279.062378	4637.166504	2562.644531	0.417670
733.942261	1206.747925	4469.938965	2463.212158	0.414492
734.264648	1353.636719	4490.277344	2702.753906	0.366415
734.586975	1274.542725	4395.364746	2558.124756	0.385845
734.909302	1290.361572	4399.884277	2535.526611	0.397467
735.231506	1297.140991	4395.364746	2632.699219	0.365450
735.553711	1270.023071	4160.342773	2445.133545	0.390867
735.875854	1301.660645	4255.255371	2587.502686	0.361163
736.197937	1310.700073	4187.460449	2406.716309	0.419087
736.519958	1245.165039	4072.209473	2404.456543	0.387140
736.841980	1204.488159	4047.351318	2422.535156	0.368092
737.163940	1272.282959	4040.571777	2420.275391	0.382272
737.485840	1331.038452	4119.665527	2408.976318	0.412797
737.807678	1308.440186	4049.611084	2451.912842	0.379710
738.129517	1222.566772	3968.257324	2402.196777	0.366906
738.451233	1331.038452	3968.257324	2472.251465	0.363779
738.773010	1285.841919	4006.674316	2490.330078	0.353899
739.094666	1240.645386	4092.547852	2519.707764	0.348243
739.416260	1385.274292	4144.523926	2607.841064	0.353518
739.737854	1222.566772	4097.067383	2499.369385	0.352439
740.059448	1272.282959	3984.076172	2492.589844	0.346788
740.380859	1265.503418	4013.453857	2445.133545	0.367263
740.702332	1263.243652	4051.870850	2481.290771	0.359726
741.023682	1285.841919	4103.847168	2512.928223	0.361067
741.345032	1256.464111	3995.375244	2386.377930	0.384533
741.666321	1353.636719	3970.517090	2479.031006	0.366479
741.987549	1258.723999	3941.139404	2399.937012	0.371159
742.308777	1292.621338	3868.824951	2388.637695	0.371163
742.629944	1281.322266	3846.226563	2481.290771	0.329901
742.950989	1360.416260	3864.305176	2442.873535	0.364204
743.272095	1315.219727	3733.235107	2379.598389	0.356363
743.593140	1342.337646	3773.912109	2366.039551	0.375714
743.914063	1292.621338	3627.023438	2357.000244	0.341079
744.234985	1290.361572	3556.968750	2318.583252	0.343289
744.555847	1270.023071	3665.440430	2377.338623	0.335110
744.876648	1220.306885	3762.613037	2359.260010	0.348722
745.197449	1276.802612	3678.999268	2286.945557	0.376226
745.518188	1369.455566	3769.392578	2350.220703	0.388635
745.838867	1265.503418	3579.566895	2422.535156	0.301030
746.159485	1321.999146	3547.929443	2370.559082	0.326918
746.480042	1204.488159	3491.433594	2305.024170	0.317652
746.800537	1254.204346	3579.566895	2332.142090	0.333897
747.121094	1310.700073	3556.968750	2230.449951	0.387792
747.441528	1306.180420	3459.796143	2316.323242	0.328785
747.761902	1254.204346	3416.859375	2228.189941	0.346435
748.082275	1260.983765	3466.575439	2350.220703	0.306403
748.402588	1401.093140	3613.464355	2298.244629	0.391992
748.722839	1256.464111	3563.748047	2298.244629	0.345325
749.043030	1263.243652	3475.614990	2277.906250	0.338536
749.363159	1236.125732	3509.512207	2273.386475	0.340785
749.683289	1308.440186	3681.259277	2381.858398	0.344496
750.003357	1274.542725	3457.536133	2343.441162	0.310116
750.323303	1240.645386	3498.213135	2223.670410	0.361076
750.643311	1351.376953	3575.047363	2352.480469	0.346591
750.963257	1450.809326	3742.274414	2472.251465	0.350899
751.283142	1335.558105	3708.377197	2372.819092	0.359377
751.602905	1333.298340	3428.158447	2307.283936	0.332603
751.922729	1328.778687	3529.850830	2420.275391	0.304612
752.242432	1263.243652	3360.363770	2357.000244	0.282703
752.562134	1272.282959	3387.481689	2300.504395	0.313265
752.881714	1245.165039	3376.182373	2305.024170	0.303339
753.201355	1285.841919	3369.403076	2246.268555	0.336342
753.520874	1204.488159	3362.623535	2201.072021	0.335565
753.840393	1328.778687	3344.544922	2295.984863	0.318921
754.159851	1290.361572	3443.977295	2214.631104	0.367370
754.479248	1218.047119	3290.309082	2318.583252	0.274840
754.798523	1294.881226	3480.134521	2316.323242	0.330288
755.117859	1328.778687	3457.536133	2275.646484	0.351837
755.437134	1276.802612	3385.221680	2198.812256	0.359221
755.756348	1387.534180	3453.016602	2316.323242	0.347104
756.075500	1367.195679	3439.457520	2221.410645	0.384877
756.394653	1351.376953	3263.191162	2280.166016	0.313529
756.713623	1383.014526	3364.883301	2250.788330	0.358668
757.032654	1319.739380	3317.427002	2305.024170	0.306966
757.351624	1383.014526	3260.931152	2192.032715	0.365718
757.670532	1319.739380	3317.427002	2221.410645	0.345479
757.989441	1292.621338	3272.230469	2164.914795	0.355917
758.308289	1247.424805	3376.182373	2250.788330	0.326668
758.627014	1292.621338	3328.726074	2255.307861	0.325315
758.945801	1251.944458	3321.946533	2284.685791	0.301979
759.264404	1229.346191	3324.206299	2176.214111	0.344866
759.583130	1333.298340	3351.324463	2300.504395	0.319408
759.901611	1285.841919	3405.560303	2248.528564	0.342793
760.220215	1256.464111	3330.985840	2253.048096	0.318404
760.538635	1373.975220	3523.071289	2273.386475	0.378298
760.857117	1258.723999	3439.457520	2131.017334	0.397940
761.175537	1389.793945	3412.339600	2350.220703	0.323434
761.493896	1294.881226	3403.300293	2230.449951	0.352881
761.812134	1344.597412	3489.173828	2284.685791	0.358173
762.130432	1380.754639	3450.756836	2291.465088	0.356590
762.448608	1337.817993	3387.481689	2266.607178	0.343765
762.766785	1369.455566	3459.796143	2352.480469	0.327653
763.084900	1380.754639	3443.977295	2359.260010	0.323983
763.402954	1292.621338	3518.551514	2300.504395	0.344101
763.720947	1317.479492	3717.416504	2393.157471	0.348518
764.038940	1256.464111	3864.305176	2413.495850	0.352936
764.356750	1371.715332	4094.807617	2616.880371	0.339835
764.674683	1344.597412	4207.798828	2601.061523	0.357702
764.992493	1276.802612	4318.530762	2662.076904	0.341585
765.310303	1283.582031	4307.231445	2693.714600	0.331271
765.627930	1265.503418	4259.774902	2662.076904	0.331227
765.945679	1378.494873	4182.940918	2634.958984	0.348697
766.263306	1333.298340	4101.586914	2526.487305	0.365502
766.580872	1306.180420	3975.036865	2458.692383	0.364680
766.898376	1385.274292	3834.927490	2490.330078	0.345720
767.215881	1290.361572	3663.180664	2402.196777	0.329224
767.533325	1299.400879	3498.213135	2307.283936	0.338778
767.850708	1312.959839	3437.197754	2216.890869	0.371068
768.168030	1319.739380	3394.260986	2169.434570	0.387655
768.485352	1247.424805	3272.230469	2144.576416	0.353518
768.802551	1267.763306	3272.230469	2219.150635	0.323642
769.119751	1258.723999	3299.348389	2074.521729	0.398181
769.436890	1233.865845	3199.916016	2239.489258	0.291159
769.753967	1335.558105	3107.262939	2146.836182	0.339222
770.071045	1251.944458	3109.522705	2029.325195	0.378313
770.388062	1267.763306	3086.924561	2164.914795	0.307005
770.704956	1267.763306	3025.909180	2099.379883	0.325132
771.021912	1301.660645	3080.145020	2110.678955	0.342092
771.338684	1227.086426	2971.673340	2036.104736	0.333734
771.655579	1254.204346	2919.697266	2097.120117	0.295759
771.972351	1274.542725	3062.066406	2167.174561	0.301579
772.289063	1197.708618	2962.634033	2049.663574	0.316310
772.605713	1310.700073	2842.863037	2036.104736	0.324725
772.922302	1242.905151	2942.295654	2015.766235	0.342192
773.238831	1315.219727	2964.893799	2049.663574	0.351440
773.555420	1376.234985	2982.972412	2119.718262	0.334674
773.871826	1256.464111	2838.343506	2054.183350	0.297323
774.188293	1335.558105	2962.634033	2092.600342	0.332288
774.504639	1279.062378	2851.902344	2008.986694	0.333407
774.820984	1256.464111	2865.461426	2110.678955	0.274988
775.137207	1351.376953	2926.476807	2031.585083	0.364666
775.453552	1283.582031	2824.784424	2011.246582	0.325928
775.769592	1328.778687	2879.020264	1984.128662	0.373926
776.085815	1290.361572	2856.422119	1920.853516	0.395129
776.401855	1270.023071	2847.382813	1929.892822	0.378473
776.717896	1279.062378	2865.461426	2106.159424	0.282856
777.033875	1328.778687	2881.280273	2054.183350	0.330452
777.349854	1331.038452	2854.162354	1990.908081	0.363277
777.665710	1256.464111	2738.911133	1975.089355	0.314477
777.981567	1358.156372	2858.681885	1999.947388	0.368850
778.297363	1272.282959	2818.005127	1995.427734	0.329906
778.613098	1272.282959	2901.618652	1954.750854	0.377928
778.928772	1301.660645	2815.745117	2063.222656	0.298445
779.244385	1310.700073	2799.926514	2015.766235	0.324731
779.559998	1303.920532	2892.579346	2006.726929	0.354195
779.875488	1315.219727	2682.415283	1959.270508	0.326911
780.191040	1358.156372	2833.823730	1988.648315	0.369309
780.506470	1263.243652	2761.509277	1993.167969	0.312311
780.821899	1317.479492	2793.146973	2079.041504	0.287283
781.137207	1233.865845	2657.557373	2022.545654	0.256515
781.452576	1245.165039	2711.793213	1952.491089	0.316700
781.767822	1297.140991	2831.563965	2011.246582	0.332183
782.083069	1276.802612	2763.769287	2051.923584	0.282932
782.398193	1276.802612	2646.258057	1927.632935	0.323080
782.713379	1211.267578	2772.808594	1984.128662	0.305452
783.028381	1297.140991	2784.107666	1909.554321	0.385257
783.343384	1247.424805	2682.415283	1893.735596	0.346408
783.658386	1267.763306	2653.037598	1934.412476	0.317638
783.973328	1349.117065	2619.140137	1947.971436	0.326490
784.288086	1297.140991	2779.587891	1918.593628	0.377571
784.602966	1274.542725	2555.864990	1807.862061	0.380671
784.917725	1394.313599	2521.967529	1963.790161	0.296700
785.232483	1310.700073	2576.203369	1927.632935	0.312025
785.547119	1297.140991	2689.194824	1859.838135	0.393381
785.861755	1362.676025	2551.345459	1900.515015	0.344409
786.176270	1290.361572	2517.447998	1864.357788	0.329966
786.490845	1294.881226	2562.644531	1871.137207	0.342423
786.805298	1328.778687	2558.124756	1812.381714	0.405185
787.119751	1392.053833	2485.810303	1902.774902	0.330737
787.434143	1301.660645	2519.707764	1819.161255	0.371753
787.748474	1376.234985	2664.336670	1947.971436	0.352754
788.062744	1288.101685	2519.707764	1916.333862	0.292352
788.377014	1283.582031	2571.683838	1853.058594	0.354474
788.691162	1358.156372	2592.022217	1821.421021	0.425439
789.005310	1256.464111	2664.336670	1968.309814	0.296178
789.319397	1272.282959	2743.430664	1889.215942	0.377418
789.633423	1283.582031	2736.651123	1927.632935	0.353366
789.947449	1276.802612	2743.430664	1950.231201	0.338028
790.261414	1274.542725	2673.375977	1923.113281	0.333809
790.575256	1251.944458	2653.037598	1900.515015	0.334510
790.889160	1233.865845	2567.164063	1868.877441	0.322146
791.202881	1240.645386	2533.266846	1882.436401	0.304078
791.516663	1222.566772	2551.345459	1839.499634	0.333215
791.830322	1351.376953	2549.085449	1909.554321	0.331579
792.144043	1251.944458	2474.511230	1857.578247	0.305062
792.457581	1303.920532	2616.880371	1868.877441	0.366236
792.771118	1240.645386	2578.463379	1857.578247	0.336159
793.084656	1392.053833	2501.629150	1993.167969	0.266200
793.398071	1265.503418	2544.565918	1934.412476	0.281525
793.711487	1267.763306	2404.456543	1853.058594	0.288268
794.024841	1233.865845	2424.794922	1771.704834	0.345234
794.338135	1328.778687	2512.928223	1828.200562	0.374939
794.651428	1319.739380	2431.574463	1769.445068	0.393112
794.964600	1283.582031	2494.849609	1821.421021	0.352588
795.277771	1197.708618	2379.598389	1902.774902	0.224347
795.590881	1279.062378	2445.133545	1819.161255	0.334252
795.903931	1344.597412	2537.786377	1932.152588	0.307661
796.216980	1260.983765	2390.897705	1737.807495	0.374687
796.529907	1380.754639	2451.912842	1984.128662	0.249267
796.842834	1299.400879	2533.266846	1844.019287	0.355176
797.155701	1303.920532	2483.550537	1866.617554	0.321471
797.468506	1281.322266	2546.825684	1862.097900	0.338255
797.781250	1283.582031	2472.251465	1805.602295	0.357374
798.093994	1256.464111	2422.535156	1780.744141	0.347162
798.406677	1193.188965	2528.747070	1780.744141	0.356614
798.719238	1272.282959	2485.810303	1814.641602	0.349763
799.031921	1333.298340	2406.716309	1873.397095	0.298296
799.344360	1308.440186	2424.794922	1742.327148	0.410426
799.656860	1297.140991	2377.338623	1832.720215	0.304679
799.969299	1209.007813	2334.401855	1792.043335	0.285610
800.281677	1181.889893	2370.559082	1801.082642	0.283235
800.593933	1233.865845	2408.976318	1839.499634	0.287869
800.906250	1240.645386	2323.102783	1699.390381	0.372839
801.218445	1220.306885	2305.024170	1740.067261	0.319513
801.530640	1303.920532	2338.921631	1751.366455	0.364200
801.842712	1229.346191	2307.283936	1758.145874	0.309302
802.154846	1294.881226	2277.906250	1839.499634	0.256472
802.466797	1301.660645	2212.371338	1746.846802	0.310839
802.778870	1260.983765	2347.960938	1694.870728	0.398844
803.090759	1364.935913	2343.441162	1783.004028	0.369316
803.402649	1276.802612	2176.214111	1660.973267	0.369434
803.714478	1220.306885	2311.803711	1692.610840	0.363801
804.026245	1229.346191	2262.087402	1710.689453	0.331537
804.337952	1258.723999	2239.489258	1749.106567	0.301030
804.649658	1256.464111	2357.000244	1844.019287	0.272556
804.961243	1288.101685	2248.528564	1683.571533	0.385351
805.272888	1340.077759	2341.181396	1699.390381	0.445007
805.584412	1317.479492	2259.827637	1690.351074	0.402652
805.895874	1245.165039	2271.126709	1699.390381	0.353860
806.207336	1272.282959	2298.244629	1670.012573	0.411543
806.518677	1321.999146	2368.299316	1751.366455	0.386827
806.830017	1326.518799	2325.362549	1742.327148	0.380604
807.141357	1254.204346	2286.945557	1737.807495	0.329502
807.452576	1364.935913	2411.236084	1787.523682	0.393739
807.763733	1319.739380	2320.843018	1792.043335	0.326257
808.074890	1292.621338	2316.323242	1753.626221	0.346468
808.385925	1383.014526	2402.196777	1841.759521	0.346681
808.697021	1342.337646	2268.866943	1733.287720	0.374738
809.007935	1326.518799	2451.912842	1893.735596	0.297556
809.318909	1312.959839	2318.583252	1810.121948	0.305937
809.629822	1333.298340	2273.386475	1715.209106	0.391207
809.940674	1249.684692	2131.017334	1769.445068	0.229337
810.251404	1254.204346	2169.434570	1810.121948	0.216520
810.562195	1450.809326	2298.244629	1848.538940	0.328519
810.872864	1247.424805	2176.214111	1654.193848	0.358569
811.183533	1229.346191	2083.561035	1742.327148	0.221466
811.494080	1251.944458	2210.111328	1690.351074	0.339564
811.804626	1292.621338	2187.513184	1703.910034	0.337624
812.115112	1258.723999	2070.002197	1624.816040	0.345580
812.425598	1224.826538	1995.427734	1663.233154	0.244953
812.735962	1204.488159	2103.899414	1618.036621	0.337432
813.046326	1236.125732	2092.600342	1658.713501	0.306798
813.356628	1331.038452	2162.655029	1737.807495	0.310575
813.666870	1270.023071	2140.056641	1753.626221	0.255047
813.976990	1272.282959	2049.663574	1670.012573	0.291046
814.287170	1272.282959	2031.585083	1620.296387	0.338819
814.597290	1229.346191	2151.355957	1615.776733	0.377664
814.907349	1258.723999	1999.947388	1731.027954	0.195728
815.217346	1466.628174	2121.978027	1780.744141	0.319383
815.527283	1285.841919	2011.246582	1602.217773	0.360377
815.837158	1297.140991	1997.687622	1647.414307	0.301030
816.147034	1364.935913	2065.482422	1694.870728	0.327009
816.456787	1333.298340	2103.899414	1649.674194	0.386626
816.766541	1414.652100	2169.434570	1715.209106	0.399895
817.076233	1340.077759	2140.056641	1731.027954	0.310957
817.385925	1355.896606	2167.174561	1694.870728	0.379003
817.695496	1480.187134	2314.063477	1792.043335	0.427147
818.005066	1292.621338	2153.615723	1633.855347	0.401948
818.314514	1267.763306	2133.277344	1733.287720	0.269332
818.623962	1315.219727	2103.899414	1579.619507	0.474640
818.933350	1265.503418	2097.120117	1604.477661	0.389757
819.242737	1335.558105	2182.993408	1663.233154	0.412663
819.552002	1218.047119	2128.757568	1701.650146	0.274891
819.861328	1319.739380	2167.174561	1665.492920	0.389340
820.170471	1236.125732	2128.757568	1749.106567	0.240571
820.479675	1288.101685	2268.866943	1737.807495	0.338637
820.788696	1270.023071	2402.196777	1825.940674	0.308903
821.097839	1364.935913	2408.976318	1801.082642	0.379085
821.406738	1416.911865	2666.596680	1918.593628	0.396372
821.715698	1227.086426	2634.958984	1816.901367	0.377848
822.024597	1297.140991	2770.548584	1923.113281	0.371768
822.333435	1360.416260	3423.638916	2271.126709	0.355166
822.642273	1283.582031	4164.862305	2623.659912	0.332455
822.950989	1249.684692	5127.548828	2976.192871	0.351424
823.259705	1303.920532	5895.890137	3349.064453	0.351275
823.568359	1319.739380	6478.925781	3690.298584	0.337730
823.876953	1434.990479	6906.033203	3868.824951	0.351779
824.185486	1260.983765	6996.426270	3914.021484	0.334824
824.494019	1297.140991	6998.686035	3853.006104	0.348455
824.802429	1288.101685	6352.375488	3568.267822	0.346551
825.110840	1258.723999	5708.324707	3419.119141	0.313788
825.419189	1265.503418	5143.367676	3048.507568	0.337440
825.727478	1272.282959	4756.937012	2849.642578	0.344229
826.035767	1213.527466	4334.349121	2705.013672	0.320650
826.343933	1355.896606	4318.530762	2666.596680	0.354175
826.652100	1326.518799	3911.761719	2494.849609	0.344936
826.960144	1297.140991	3810.069336	2406.716309	0.355023
827.268250	1306.180420	3760.353027	2363.779785	0.365584
827.576233	1376.234985	3938.879639	2524.227539	0.348749
827.884155	1242.905151	3972.776855	2438.354004	0.358611
828.192017	1272.282959	3914.021484	2528.747070	0.322740
828.499878	1270.023071	3782.951416	2408.976318	0.343674
828.807678	1364.935913	3880.124023	2420.275391	0.377178
829.115479	1285.841919	3862.045410	2469.991699	0.337574
829.423096	1247.424805	3715.156494	2361.519775	0.345376
829.730835	1215.787231	3462.055908	2237.229248	0.342248
830.038330	1242.905151	3204.435547	2083.561035	0.367977
830.345947	1247.424805	3010.090332	2137.796875	0.296598
830.653442	1224.826538	2772.808594	1941.191895	0.334631
830.960876	1297.140991	2759.249512	1850.798828	0.421738
831.268250	1206.747925	2605.581299	1807.862061	0.366809
831.575623	1249.684692	2612.360840	1844.019287	0.360362
831.882874	1242.905151	2445.133545	1839.499634	0.304308
832.190125	1193.188965	2375.078857	1692.610840	0.374109
832.497314	1358.156372	2352.480469	1751.366455	0.402903
832.804504	1376.234985	2185.253418	1783.004028	0.298611
833.111572	1285.841919	2140.056641	1631.595581	0.392800
833.418640	1279.062378	2187.513184	1667.752808	0.368698
833.725586	1279.062378	2388.637695	1731.027954	0.390051
834.032532	1306.180420	2325.362549	1726.508301	0.384664
834.339417	1306.180420	2601.061523	1927.632935	0.318822
834.646301	1378.494873	2693.714600	1979.609009	0.340041
834.953003	1340.077759	2858.681885	1934.412476	0.407413
835.259827	1294.881226	2894.839111	1981.868774	0.367160
835.566467	1274.542725	3053.027100	2070.002197	0.349432
835.873108	1249.684692	2924.217041	2036.104736	0.328239
836.179688	1184.149658	2867.721191	1911.814209	0.364300
836.486267	1274.542725	2745.690430	1961.530396	0.330707
836.792664	1220.306885	2630.439453	1868.877441	0.337303
837.099121	1276.802612	2494.849609	1882.436401	0.303454
837.405518	1383.014526	2510.668457	1877.916748	0.357656
837.711792	1297.140991	2248.528564	1810.121948	0.268256
838.018127	1254.204346	2171.694336	1721.988647	0.292556
838.324341	1351.376953	2311.803711	1733.287720	0.400502
838.630554	1267.763306	2133.277344	1735.547607	0.267228
838.936646	1306.180420	2067.742188	1638.375000	0.360313
839.242737	1328.778687	2049.663574	1631.595581	0.376686
839.548767	1324.259033	2070.002197	1620.296387	0.401243
839.854797	1349.117065	1950.231201	1629.335693	0.331460
840.160645	1288.101685	1932.152588	1572.839966	0.354474
840.466553	1270.023071	1934.412476	1561.540894	0.357758
840.772400	1256.464111	1984.128662	1563.800659	0.374317
841.078186	1294.881226	2083.561035	1568.320313	0.460040
841.383850	1240.645386	1941.191895	1529.903320	0.384152
841.689575	1290.361572	1975.089355	1642.894653	0.288318
841.995178	1294.881226	2002.207275	1538.942627	0.462121
842.300781	1288.101685	1997.687622	1586.398926	0.376356
842.606262	1270.023071	1977.349121	1615.776733	0.310853
842.911743	1272.282959	1925.373169	1663.233154	0.222852
843.217163	1267.763306	1749.106567	1520.864014	0.279162
843.522583	1157.031738	1823.680908	1541.202393	0.239373
843.827881	1294.881226	1886.956055	1466.628174	0.537488
844.133179	1285.841919	1767.185181	1541.202393	0.275301
844.438354	1285.841919	1735.547607	1586.398926	0.175002
844.743530	1258.723999	1751.366455	1491.486206	0.325619
845.048645	1319.739380	1837.239868	1577.359619	0.302931
845.353760	1312.959839	1773.964722	1552.501587	0.284324
845.658752	1378.494873	1868.877441	1667.752808	0.229250
845.963745	1457.588867	1882.436401	1604.477661	0.461244
846.268555	1238.385498	1789.783447	1425.951172	0.468312
846.573486	1276.802612	1710.689453	1529.903320	0.234083
846.878296	1444.029785	1715.209106	1545.722046	0.425969
847.183044	1342.337646	1642.894653	1457.588867	0.416281
847.487732	1297.140991	1656.453613	1466.628174	0.326336
847.792419	1364.935913	1681.311768	1441.770020	0.614649
848.097046	1319.739380	1656.453613	1430.470825	0.482991
848.401611	1276.802612	1618.036621	1389.793945	0.480007
848.706055	1290.361572	1629.335693	1437.250366	0.363178
849.010559	1265.503418	1667.752808	1410.132446	0.444240
849.314941	1331.038452	1683.571533	1480.187134	0.373580
849.619324	1231.606079	1660.973267	1398.833252	0.409522
849.923584	1211.267578	1618.036621	1394.313599	0.346788
850.227844	1236.125732	1618.036621	1321.999146	0.648103
850.532043	1297.140991	1518.604126	1428.211060	0.227798
850.836243	1303.920532	1627.075928	1410.132446	0.483238
851.140320	1272.282959	1597.698120	1416.911865	0.352183
851.444397	1195.448853	1656.453613	1373.975220	0.412003
851.748352	1267.763306	1640.634888	1475.667480	0.253696
852.052307	1319.739380	1640.634888	1392.053833	0.647139
852.356140	1263.243652	1557.021240	1369.455566	0.441845
852.660095	1308.440186	1665.492920	1434.990479	0.450469
852.963806	1317.479492	1688.091187	1493.746094	0.322749
853.267578	1471.147827	1868.877441	1627.075928	0.406664
853.571228	1335.558105	1703.910034	1507.305054	0.331374
853.874939	1308.440186	1615.776733	1407.872559	0.490086
854.178467	1231.606079	1624.816040	1455.328979	0.244914
854.482056	1308.440186	1561.540894	1403.352905	0.425969
854.785461	1373.975220	1584.139160	1410.132446	0.764363
855.088989	1288.101685	1602.217773	1387.534180	0.499562
855.392273	1310.700073	1590.918701	1507.305054	0.153902
855.695679	1335.558105	1561.540894	1459.848633	0.259637
855.998901	1468.887939	1676.792114	1527.643433	0.548815
856.302185	1238.385498	1604.477661	1405.612793	0.340283
856.605286	1351.376953	1645.154541	1532.163086	0.210854
856.908508	1292.621338	1500.525513	1425.951172	0.192936
857.211548	1231.606079	1570.580200	1453.069214	0.184865
857.514587	1283.582031	1518.604126	1401.093140	0.301030
857.817566	1258.723999	1532.163086	1434.990479	0.190691
858.120483	1303.920532	1604.477661	1416.911865	0.424882
858.423340	1405.612793	1701.650146	1455.328979	0.774849
858.726196	1281.322266	1618.036621	1373.975220	0.560402
859.028931	1272.282959	1581.879272	1457.588867	0.222907
859.331665	1288.101685	1615.776733	1378.494873	0.559308
859.634277	1351.376953	1602.217773	1450.809326	0.401870
859.936890	1349.117065	1645.154541	1389.793945	0.861999
860.239441	1231.606079	1547.981934	1450.809326	0.159356
860.541992	1335.558105	1561.540894	1466.628174	0.236572
860.844421	1279.062378	1593.178467	1394.313599	0.435445
861.146912	1242.905151	1597.698120	1385.274292	0.396559
861.449219	1274.542725	1593.178467	1319.739380	0.848188
861.751526	1344.597412	1572.839966	1414.652100	0.512959
862.053772	1394.313599	1656.453613	1471.147827	0.532979
862.355957	1462.108521	1613.516968	1441.770020	nan
862.658081	1342.337646	1559.281006	1450.809326	0.301030
862.960266	1335.558105	1593.178467	1448.549561	0.357935
863.262207	1279.062378	1523.123779	1378.494873	0.389971
863.564331	1355.896606	1579.619507	1437.250366	0.439333
863.866211	1321.999146	1622.556274	1392.053833	0.632490
864.168091	1283.582031	1611.257080	1362.676025	0.617300
864.469910	1301.660645	1599.958008	1389.793945	0.529509
864.771729	1308.440186	1611.257080	1450.809326	0.327764
865.073425	1240.645386	1608.997314	1430.470825	0.287909
865.375122	1251.944458	1509.564819	1376.234985	0.316542
865.676819	1260.983765	1520.864014	1394.313599	0.289846
865.978333	1224.826538	1511.824707	1434.990479	0.135321
866.279907	1335.558105	1645.154541	1532.163086	0.197201
866.581360	1294.881226	1545.722046	1450.809326	0.206474
866.882874	1220.306885	1559.281006	1389.793945	0.301030
867.184143	1276.802612	1538.942627	1364.935913	0.473393
867.485535	1267.763306	1622.556274	1432.730713	0.332577
867.786743	1308.440186	1597.698120	1480.187134	0.226396
868.088013	1281.322266	1627.075928	1471.147827	0.260412
868.389160	1346.857300	1588.658813	1462.108521	0.321813
868.690308	1242.905151	1518.604126	1410.132446	0.217128
868.991333	1270.023071	1532.163086	1392.053833	0.332064
869.292358	1355.896606	1613.516968	1496.005859	0.264513
869.593323	1394.313599	1690.351074	1529.903320	0.339120
869.894287	1274.542725	1547.981934	1328.778687	0.702573
870.195068	1362.676025	1615.776733	1457.588867	0.425968
870.495911	1290.361572	1518.604126	1396.573486	0.332223
870.796692	1308.440186	1593.178467	1425.951172	0.384367
871.097412	1297.140991	1529.903320	1457.588867	0.161579
871.398010	1294.881226	1572.839966	1396.573486	0.436692
871.698669	1247.424805	1593.178467	1403.352905	0.345842
871.999207	1276.802612	1482.446899	1340.077759	0.511883
872.299683	1254.204346	1507.305054	1405.612793	0.223143
872.600159	1306.180420	1547.981934	1446.289673	0.236992
872.900574	1220.306885	1570.580200	1394.313599	0.303841
873.200867	1238.385498	1563.800659	1371.715332	0.387510
873.501160	1231.606079	1561.540894	1376.234985	0.358173
873.801392	1263.243652	1502.785400	1324.259033	0.593942
874.101624	1251.944458	1552.501587	1421.431519	0.248790
874.401733	1328.778687	1615.776733	1484.706787	0.264955
874.701843	1258.723999	1606.737427	1491.486206	0.174684
875.001831	1315.219727	1588.658813	1432.730713	0.366782
875.301819	1270.023071	1566.060547	1378.494873	0.436030
875.601746	1428.211060	1577.359619	1471.147827	0.540790
875.901672	1342.337646	1599.958008	1432.730713	0.454845
876.201477	1274.542725	1505.045166	1346.857300	0.503450
876.501282	1249.684692	1557.021240	1378.494873	0.377664
876.800964	1274.542725	1597.698120	1342.337646	0.678214
877.100647	1319.739380	1627.075928	1389.793945	0.642178
877.400208	1292.621338	1545.722046	1378.494873	0.469434
877.699829	1333.298340	1708.429688	1489.226440	0.381259
877.999329	1258.723999	1606.737427	1477.927246	0.200749
878.298767	1227.086426	1505.045166	1351.376953	0.349542
878.598206	1242.905151	1599.958008	1383.014526	0.406265
878.897583	1247.424805	1613.516968	1428.211060	0.306425
879.196838	1258.723999	1654.193848	1416.911865	0.397940
879.496155	1301.660645	1588.658813	1317.479492	1.258704
879.795288	1346.857300	1606.737427	1471.147827	0.320335
880.094482	1333.298340	1581.879272	1462.108521	0.285518
880.393555	1240.645386	1557.021240	1405.612793	0.282805
880.692627	1283.582031	1674.532227	1432.730713	0.418502
880.991577	1312.959839	1688.091187	1414.652100	0.566895
881.290588	1360.416260	1753.626221	1550.241699	0.316270
881.589355	1229.346191	1787.523682	1507.305054	0.302792
881.888306	1337.817993	2115.198730	1755.886108	0.269387
882.187012	1288.101685	2395.417236	1778.484375	0.353736
882.485840	1319.739380	2666.596680	1900.515015	0.365313
882.784424	1274.542725	3023.649414	2090.340576	0.331234
883.083069	1288.101685	3217.994629	2108.419189	0.371551
883.381592	1378.494873	3645.102051	2291.465088	0.394920
883.680176	1290.361572	3441.717529	2203.332031	0.372256
883.978638	1342.337646	3434.937988	2250.788330	0.362385
884.277039	1281.322266	3498.213135	2219.150635	0.373621
884.575378	1285.841919	3342.285156	2228.189941	0.338905
884.873779	1213.527466	3208.955322	2124.238037	0.340656
885.171997	1272.282959	3082.404785	2135.537109	0.321569
885.470276	1407.872559	2953.594727	2151.355957	0.317860
885.768311	1222.566772	2754.729980	2045.144043	0.270128
886.066528	1227.086426	2648.518066	1911.814209	0.317208
886.364502	1213.527466	2488.070313	1884.696289	0.278523
886.662537	1335.558105	2354.740479	1769.445068	0.370875
886.960510	1310.700073	2194.292725	1792.043335	0.263797
887.258362	1270.023071	2099.379883	1615.776733	0.379975
887.556213	1231.606079	1918.593628	1608.997314	0.260157
887.854004	1263.243652	1929.892822	1570.580200	0.336283
888.151733	1425.951172	1911.814209	1563.800659	0.547109
888.449402	1364.935913	1866.617554	1624.816040	0.285655
888.747009	1231.606079	1742.327148	1547.981934	0.207980
889.044617	1240.645386	1780.744141	1444.029785	0.424156
889.342163	1285.841919	1629.335693	1432.730713	0.368930
889.639648	1229.346191	1624.816040	1448.549561	0.256266
889.937012	1242.905151	1599.958008	1439.510132	0.259138
890.234436	1337.817993	1620.296387	1419.171753	0.540608
890.531738	1247.424805	1683.571533	1473.407593	0.285557
890.829041	1249.684692	1608.997314	1349.117065	0.557945
891.126221	1299.400879	1566.060547	1351.376953	0.710154
891.423401	1290.361572	1581.879272	1403.352905	0.411620
891.720459	1188.669312	1552.501587	1423.691406	0.189793
892.017578	1288.101685	1658.713501	1448.549561	0.363585
892.314514	1220.306885	1593.178467	1407.872559	0.298406
892.611511	1335.558105	1577.359619	1437.250366	0.376171
>>>>>End Processed Spectral Data<<<<<
