Jaz Data File
++++++++++++++++++++++++++++++++++++
Date: Mon Apr 25 12:45:12 2016
User: jaz
Dark Spectrum Present: Yes
Reference Spectrum Present: Yes
Processed Spectrum Present: Yes
Spectrometers: JAZA3098
Integration Time (usec): 933000 (JAZA3098)
Spectra Averaged: 1 (JAZA3098)
Boxcar Smoothing: 0 (JAZA3098)
Correct for Electrical Dark: No (JAZA3098)
Strobe/Lamp Enabled: Yes (JAZA3098)
Correct for Detector Non-linearity: No (JAZA3098)
Correct for Stray Light: No (JAZA3098)
Number of Pixels in Processed Spectrum: 2048
>>>>>Begin Processed Spectral Data<<<<<
W	D	R	S	P
190.313904	0.000000	0.000000	0.000000	0.000000
190.695511	0.000000	0.000000	0.000000	0.000000
191.077087	1195.448853	1163.811279	1141.212891	-0.234084
191.458633	1152.512085	1082.457397	1145.732544	1.014237
191.840149	1116.354858	1238.385498	1179.630005	0.285236
192.221634	1147.992432	1224.826538	1184.149658	0.327359
192.603088	1227.086426	1249.684692	1258.723999	-0.146128
192.984528	1292.621338	1346.857300	1319.739380	0.301029
193.365921	1281.322266	1288.101685	1299.400879	-0.425973
193.747284	1258.723999	1220.306885	1204.488159	-0.149762
194.128616	1283.582031	1229.346191	1238.385498	0.079181
194.509918	1290.361572	1254.204346	1279.062378	0.505148
194.891190	1301.660645	1281.322266	1310.700073	nan
195.272446	1247.424805	1229.346191	1267.763306	nan
195.653656	1468.887939	1444.029785	1453.069214	0.196297
196.034836	1326.518799	1267.763306	1335.558105	nan
196.416000	1270.023071	1179.630005	1283.582031	nan
196.797104	1360.416260	1285.841919	1254.204346	-0.153584
197.178192	1303.920532	1369.455566	1378.494873	-0.056116
197.559265	1258.723999	1245.165039	1251.944458	0.301026
197.940292	1247.424805	1274.542725	1231.606079	nan
198.321304	1213.527466	1251.944458	1258.723999	-0.070582
198.702271	1267.763306	1281.322266	1340.077759	-0.726999
199.083221	1312.959839	1197.708618	1263.243652	0.365148
199.464111	1258.723999	1288.101685	1242.905151	nan
199.844986	1238.385498	1326.518799	1317.479492	0.046997
200.225830	1206.747925	1285.841919	1285.841919	-0.000000
200.606659	1215.787231	1270.023071	1292.621338	-0.151268
200.987427	1468.887939	1378.494873	1423.691406	0.301030
201.368195	1227.086426	1267.763306	1297.140991	-0.236089
201.748917	1265.503418	1299.400879	1324.259033	-0.238882
202.129608	1247.424805	1267.763306	1276.802612	-0.159700
202.510284	1315.219727	1260.983765	1222.566772	-0.232572
202.890915	1281.322266	1274.542725	1199.968506	-1.079177
203.271515	1238.385498	1276.802612	1294.881226	-0.167491
203.652100	1258.723999	1274.542725	1349.117065	-0.756964
204.032623	1258.723999	1236.125732	1242.905151	0.154900
204.413147	1231.606079	1209.007813	1233.865845	nan
204.793625	1312.959839	1317.479492	1335.558105	-0.698970
205.174088	1256.464111	1265.503418	1245.165039	nan
205.554504	1220.306885	1231.606079	1276.802612	-0.698968
205.934906	1166.071045	1202.228271	1195.448853	0.090176
206.315247	1163.811279	1229.346191	1260.983765	-0.171071
206.695587	1254.204346	1281.322266	1227.086426	nan
207.075882	1290.361572	1355.896606	1297.140991	0.985281
207.456146	1206.747925	1288.101685	1260.983765	0.176091
207.836380	1256.464111	1380.754639	1290.361572	0.564271
208.216599	1242.905151	1274.542725	1267.763306	0.104734
208.596771	1193.188965	1202.228271	1188.669312	nan
208.976913	1328.778687	1403.352905	1301.660645	nan
209.357025	1425.951172	1405.612793	1387.534180	-0.276207
209.737106	1227.086426	1238.385498	1303.920532	-0.832511
210.117157	1292.621338	1258.723999	1276.802612	0.330994
210.497177	1233.865845	1251.944458	1206.747925	nan
210.877167	1299.400879	1267.763306	1324.259033	nan
211.257126	1147.992432	1236.125732	1227.086426	0.046997
211.637070	1301.660645	1340.077759	1335.558105	0.054358
212.016968	1231.606079	1301.660645	1403.352905	-0.389452
212.396835	1209.007813	1294.881226	1213.527466	1.278754
212.776672	1181.889893	1204.488159	1236.125732	-0.380211
213.156464	1215.787231	1215.787231	1251.944458	0.000000
213.536255	1166.071045	1263.243652	1283.582031	-0.082535
213.916000	1297.140991	1209.007813	1231.606079	0.128667
214.295700	1215.787231	1260.983765	1193.188965	nan
214.675400	1288.101685	1315.219727	1247.424805	nan
215.055038	1224.826538	1274.542725	1267.763306	0.063668
215.434662	1279.062378	1256.464111	1270.023071	0.397940
215.814240	1419.171753	1346.857300	1380.754639	0.274700
216.193787	1294.881226	1224.826538	1240.645386	0.111151
216.573334	1274.542725	1312.959839	1292.621338	0.327360
216.952820	1270.023071	1272.282959	1161.551392	nan
217.332275	1258.723999	1224.826538	1220.306885	-0.054358
217.711716	1407.872559	1358.156372	1376.234985	0.196295
218.091125	1242.905151	1274.542725	1258.723999	0.301028
218.470505	1457.588867	1471.147827	1446.289673	nan
218.849854	1267.763306	1319.739380	1245.165039	nan
219.229156	1229.346191	1312.959839	1283.582031	0.187991
219.608444	1263.243652	1294.881226	1317.479492	-0.234083
219.987671	1355.896606	1392.053833	1432.730713	-0.327359
220.366898	1333.298340	1369.455566	1263.243652	nan
220.746094	1288.101685	1358.156372	1267.763306	nan
221.125244	1328.778687	1410.132446	1416.911865	-0.034762
221.504364	1328.778687	1324.259033	1326.518799	0.301018
221.883469	1236.125732	1251.944458	1247.424805	0.146129
222.262512	1281.322266	1272.282959	1229.346191	-0.759668
222.641556	1152.512085	1220.306885	1184.149658	0.330993
223.020554	1306.180420	1331.038452	1220.306885	nan
223.399521	1179.630005	1299.400879	1236.125732	0.326336
223.778473	1249.684692	1245.165039	1247.424805	0.301018
224.157364	1175.110352	1301.660645	1242.905151	0.271067
224.536240	1215.787231	1222.566772	1181.889893	nan
224.915085	1197.708618	1256.464111	1251.944458	0.034762
225.293900	1195.448853	1303.920532	1195.448853	inf
225.672684	1326.518799	1303.920532	1260.983765	-0.462398
226.051437	1319.739380	1297.140991	1229.346191	-0.602058
226.430161	1292.621338	1218.047119	1247.424805	0.217484
226.808838	1251.944458	1267.763306	1288.101685	-0.359020
227.187500	1371.715332	1412.392212	1362.676025	nan
227.566132	1274.542725	1342.337646	1251.944458	nan
227.944717	1308.440186	1328.778687	1315.219727	0.477119
228.323288	1274.542725	1407.872559	1283.582031	1.168792
228.701813	1272.282959	1321.999146	1292.621338	0.388181
229.080307	1231.606079	1326.518799	1267.763306	0.419129
229.458786	1279.062378	1358.156372	1265.503418	nan
229.837234	1306.180420	1324.259033	1294.881226	nan
230.215637	1258.723999	1380.754639	1272.282959	0.954243
230.594009	1292.621338	1455.328979	1290.361572	nan
230.972351	1288.101685	1371.715332	1254.204346	nan
231.350662	1229.346191	1387.534180	1389.793945	-0.006160
231.728958	1220.306885	1380.754639	1251.944458	0.705130
232.107193	1265.503418	1410.132446	1222.566772	nan
232.485413	1227.086426	1324.259033	1292.621338	0.171071
232.863602	1154.771851	1362.676025	1276.802612	0.231394
233.241760	1213.527466	1337.817993	1260.983765	0.418144
233.619873	1209.007813	1335.558105	1190.929199	nan
233.997986	1292.621338	1525.383667	1353.636719	0.581473
234.376038	1272.282959	1378.494873	1301.660645	0.558156
234.754074	1292.621338	1502.785400	1358.156372	0.506085
235.132065	1247.424805	1360.416260	1292.621338	0.397940
235.510025	1274.542725	1410.132446	1324.259033	0.435728
235.887970	1274.542725	1317.479492	1236.125732	nan
236.265869	1326.518799	1448.549561	1285.841919	nan
236.643738	1331.038452	1421.431519	1376.234985	0.301030
237.021576	1202.228271	1371.715332	1251.944458	0.532639
237.399384	1175.110352	1333.298340	1213.527466	0.614649
237.777161	1224.826538	1491.486206	1292.621338	0.594761
238.154892	1231.606079	1416.911865	1265.503418	0.737723
238.532623	1197.708618	1448.549561	1222.566772	1.003929
238.910309	1218.047119	1410.132446	1265.503418	0.607200
239.287949	1222.566772	1439.510132	1263.243652	0.726999
239.665573	1245.165039	1419.171753	1285.841919	0.631218
240.043167	1227.086426	1473.407593	1340.077759	0.338457
240.420715	1206.747925	1421.431519	1260.983765	0.597512
240.798233	1274.542725	1459.848633	1324.259033	0.571390
241.175735	1206.747925	1462.108521	1193.188965	nan
241.553207	1177.370239	1416.911865	1211.267578	0.849215
241.930634	1272.282959	1450.809326	1220.306885	nan
242.308014	1251.944458	1484.706787	1310.700073	0.597863
242.685394	1231.606079	1520.864014	1355.896606	0.366847
243.062729	1292.621338	1563.800659	1376.234985	0.510979
243.440033	1260.983765	1615.776733	1254.204346	nan
243.817307	1283.582031	1746.846802	1389.793945	0.639656
244.194534	1270.023071	1683.571533	1337.817993	0.785329
244.571747	1319.739380	1753.626221	1383.014526	0.836143
244.948929	1209.007813	1685.831421	1387.534180	0.426655
245.326065	1179.630005	1706.169800	1373.975220	0.432857
245.703186	1285.841919	1622.556274	1340.077759	0.792975
246.080261	1224.826538	1649.674194	1276.802612	0.912430
246.457306	1224.826538	1572.839966	1299.400879	0.669007
246.834320	1256.464111	1715.209106	1353.636719	0.674028
247.211304	1227.086426	1712.949341	1358.156372	0.569011
247.588257	1211.267578	1778.484375	1373.975220	0.542341
247.965195	1321.999146	1943.451782	1387.534180	0.976934
248.342087	1326.518799	1970.569702	1373.975220	1.132625
248.718933	1157.031738	2013.506348	1389.793945	0.565802
249.095764	1202.228271	2024.805542	1380.754639	0.663474
249.472549	1231.606079	2158.135254	1444.029785	0.639656
249.849319	1224.826538	2036.104736	1376.234985	0.729020
250.226044	1319.739380	1997.687622	1403.352905	0.908920
250.602737	1279.062378	1855.318481	1360.416260	0.850237
250.979401	1315.219727	1789.783447	1392.053833	0.790740
251.356033	1376.234985	1825.940674	1380.754639	1.997823
251.732635	1274.542725	1731.027954	1378.494873	0.642593
252.109207	1340.077759	1773.964722	1315.219727	nan
252.485748	1335.558105	1780.744141	1380.754639	0.993436
252.862244	1161.551392	1728.768066	1297.140991	0.621523
253.238724	1303.920532	1783.004028	1376.234985	0.821186
253.615158	1294.881226	1776.224487	1378.494873	0.760178
253.991577	1306.180420	1801.082642	1272.282959	nan
254.367950	1170.590698	1798.822754	1362.676025	0.514626
254.744308	1373.975220	1825.940674	1471.147827	0.667561
255.120621	1263.243652	1749.106567	1292.621338	1.218496
255.496902	1240.645386	1710.689453	1389.793945	0.498520
255.873154	1184.149658	1721.988647	1274.542725	0.774517
256.249390	1249.684692	1656.453613	1288.101685	1.024824
256.625549	1195.448853	1672.272461	1308.440186	0.625313
257.001709	1317.479492	1853.058594	1398.833252	0.818446
257.377838	1229.346191	1767.185181	1448.549561	0.389805
257.753937	1202.228271	1783.004028	1389.793945	0.490855
258.129974	1168.330933	1647.414307	1321.999146	0.493827
258.506012	1211.267578	1755.886108	1317.479492	0.709919
258.881989	1254.204346	1927.632935	1486.966553	0.461379
259.257935	1254.204346	1943.451782	1428.211060	0.597809
259.633911	1224.826538	1981.868774	1333.298340	0.843803
260.009766	1229.346191	2063.222656	1385.274292	0.728177
260.385651	1364.935913	2345.701172	1543.462280	0.739863
260.761475	1254.204346	2352.480469	1489.226440	0.669603
261.137299	1260.983765	2429.314697	1486.966553	0.713490
261.513062	1211.267578	2481.290771	1489.226440	0.659831
261.888763	1376.234985	2788.627197	1604.477661	0.791558
262.264496	1211.267578	2544.565918	1509.564819	0.650278
262.640137	1231.606079	2445.133545	1358.156372	0.981786
263.015808	1175.110352	2300.504395	1428.211060	0.648011
263.391388	1306.180420	2255.307861	1428.211060	0.890856
263.766998	1376.234985	2325.362549	1552.501587	0.731155
264.142517	1299.400879	2162.655029	1491.486206	0.652644
264.518036	1141.212891	1990.908081	1371.715332	0.566588
264.893524	1263.243652	2167.174561	1457.588867	0.667561
265.268951	1360.416260	2131.017334	1432.730713	1.027604
265.644379	1224.826538	1929.892822	1358.156372	0.723303
266.019745	1218.047119	1934.412476	1383.014526	0.637736
266.395111	1260.983765	2110.678955	1378.494873	0.859184
266.770386	1288.101685	2056.443115	1459.848633	0.650665
267.145691	1245.165039	2020.285889	1410.132446	0.671971
267.520966	1245.165039	2076.781494	1392.053833	0.752934
267.896149	1285.841919	2205.591797	1511.824707	0.609594
268.271362	1231.606079	2185.253418	1423.691406	0.695894
268.646515	1209.007813	2194.292725	1392.053833	0.731002
269.021606	1206.747925	2244.008789	1523.123779	0.515685
269.396729	1290.361572	2196.552490	1403.352905	0.904175
269.771790	1303.920532	2212.371338	1387.534180	1.036024
270.146790	1258.723999	2282.425781	1434.990479	0.764004
270.521790	1355.896606	2494.849609	1527.643433	0.821617
270.896759	1263.243652	2271.126709	1468.887939	0.690293
271.271667	1242.905151	2280.166016	1527.643433	0.561442
271.646545	1170.590698	2357.000244	1432.730713	0.655701
272.021423	1231.606079	2458.692383	1464.368286	0.721963
272.396271	1222.566772	2580.723145	1489.226440	0.706992
272.771027	1213.527466	2621.400146	1441.770020	0.790167
273.145813	1263.243652	2754.729980	1575.099854	0.679665
273.520538	1279.062378	2888.059570	1550.241699	0.773299
273.895233	1283.582031	2779.587891	1525.383667	0.791474
274.269897	1303.920532	2643.998291	1545.722046	0.743671
274.644501	1220.306885	2555.864990	1466.628174	0.734161
275.019135	1281.322266	2594.281982	1547.981934	0.692294
275.393677	1258.723999	2451.912842	1484.706787	0.722634
275.768250	1163.811279	2485.810303	1441.770020	0.677251
276.142700	1229.346191	2476.770996	1502.785400	0.659154
276.517212	1276.802612	2449.653076	1437.250366	0.863909
276.891632	1299.400879	2542.306152	1541.202393	0.710979
277.266022	1222.566772	2562.644531	1532.163086	0.636334
277.640381	1297.140991	2664.336670	1588.658813	0.671166
278.014740	1290.361572	2684.675293	1568.320313	0.700380
278.389038	1220.306885	2684.675293	1588.658813	0.599387
278.763336	1209.007813	2664.336670	1500.525513	0.698296
279.137543	1274.542725	2711.793213	1493.746094	0.816685
279.511780	1270.023071	2668.856445	1514.084473	0.758267
279.885925	1292.621338	2693.714600	1572.839966	0.698970
280.260101	1199.968506	2662.076904	1464.368286	0.742719
280.634186	1240.645386	2822.524658	1606.737427	0.635583
281.008301	1340.077759	2908.398193	1731.027954	0.603313
281.382294	1270.023071	2695.974365	1575.099854	0.669696
281.756348	1211.267578	2820.264893	1649.674194	0.564678
282.130280	1224.826538	2910.657959	1599.958008	0.652631
282.504272	1260.983765	3199.916016	1604.477661	0.751644
282.878143	1258.723999	3285.789307	1604.477661	0.768101
283.252014	1251.944458	3353.584229	1731.027954	0.642147
283.625854	1367.195679	3382.961914	1778.484375	0.690293
283.999664	1179.630005	3333.245850	1663.233154	0.648679
284.373444	1218.047119	3260.931152	1690.351074	0.636022
284.747192	1218.047119	3358.103760	1719.728760	0.629997
285.120941	1328.778687	3450.756836	1769.445068	0.682631
285.494629	1227.086426	3256.411621	1719.728760	0.614820
285.868256	1342.337646	3401.040527	1751.366455	0.701840
286.241882	1333.298340	3534.370361	1719.728760	0.755563
286.615448	1290.361572	3697.077881	1837.239868	0.643534
286.988983	1263.243652	3649.621582	1676.792114	0.761213
287.362518	1385.274292	3823.628418	1871.137207	0.700583
287.736023	1270.023071	3825.888184	1803.342407	0.680551
288.109467	1251.944458	3706.117188	1746.846802	0.695386
288.482880	1321.999146	3807.809570	1810.121948	0.706939
288.856262	1378.494873	3769.392578	1868.877441	0.688026
289.229584	1265.503418	3604.425049	1767.185181	0.668587
289.602936	1276.802612	3579.566895	1785.263794	0.655992
289.976227	1326.518799	3550.189209	1864.357788	0.616418
290.349457	1290.361572	3669.959961	1807.862061	0.662593
290.722687	1211.267578	3749.053955	1819.161255	0.620627
291.095886	1184.149658	3821.368408	1828.200562	0.612226
291.469025	1190.929199	3959.218018	1825.940674	0.639430
291.842133	1220.306885	4126.445313	1855.318481	0.660535
292.215240	1292.621338	4151.303223	1975.089355	0.622084
292.588287	1306.180420	4058.650391	1884.696289	0.677407
292.961304	1206.747925	4078.988770	1848.538940	0.650827
293.334320	1204.488159	4027.012695	1909.554321	0.602408
293.707245	1231.606079	4112.886230	1947.971436	0.604451
294.080170	1236.125732	3880.124023	1918.593628	0.588179
294.453064	1256.464111	3918.541016	1984.128662	0.563289
294.825897	1247.424805	4108.366699	1902.774902	0.640036
295.198730	1202.228271	4436.041504	1839.499634	0.705391
295.571533	1179.630005	4408.923828	2002.207275	0.593931
295.944275	1260.983765	4474.458496	2011.246582	0.631761
296.317017	1346.857300	4700.441406	2135.537109	0.628608
296.689697	1292.621338	4833.771484	2162.655029	0.609608
297.062317	1315.219727	4695.921875	2169.434570	0.597440
297.434967	1249.684692	4912.865234	2169.434570	0.600189
297.807526	1260.983765	5039.415527	2250.788330	0.581762
298.180115	1184.149658	5120.769531	2295.984863	0.549083
298.552612	1168.330933	5150.146973	2164.914795	0.601567
298.925110	1285.841919	5188.563965	2201.072021	0.629837
299.297546	1247.424805	5145.627441	2305.024170	0.566543
299.669983	1337.817993	4910.605469	2273.386475	0.581932
300.042358	1258.723999	4838.291016	2246.268555	0.559274
300.414734	1267.763306	4671.063477	2119.718262	0.601484
300.787048	1190.929199	4515.135742	2042.884155	0.591271
301.159332	1274.542725	4530.954590	2088.080811	0.602361
301.531616	1204.488159	4332.089355	2088.080811	0.548959
301.903809	1227.086426	4472.198730	2049.663574	0.596053
302.276031	1224.826538	4465.419434	2029.325195	0.605099
302.648163	1274.542725	4427.002441	2101.639648	0.581093
303.020294	1249.684692	4445.081055	2040.624390	0.606381
303.392395	1238.385498	4415.703125	2013.506348	0.612691
303.764435	1186.409546	4372.766602	1970.569702	0.608890
304.136444	1197.708618	4363.727051	2074.521729	0.557606
304.508453	1267.763306	4271.074219	2180.733643	0.517144
304.880371	1344.597412	4250.735840	2022.545654	0.632120
305.252319	1229.346191	4126.445313	2022.545654	0.562581
305.624207	1337.817993	4142.264160	2085.820801	0.573944
305.996033	1240.645386	4169.381836	2042.884155	0.562377
306.367859	1159.291626	4126.445313	2011.246582	0.541923
306.739655	1181.889893	4121.925781	2018.026001	0.546076
307.111389	1184.149658	4133.224609	2146.836182	0.486201
307.483124	1175.110352	4191.979980	2027.065430	0.549140
307.854828	1204.488159	4201.019531	2058.702881	0.545052
308.226471	1177.370239	4332.089355	2074.521729	0.546095
308.598083	1242.905151	4262.034668	2124.238037	0.534742
308.969666	1222.566772	4268.814453	2153.615723	0.514793
309.341187	1242.905151	4399.884277	2155.875488	0.538815
309.712738	1152.512085	4598.749023	2137.796875	0.543783
310.084167	1254.204346	4671.063477	2153.615723	0.579669
310.455658	1315.219727	4668.803711	2323.102783	0.522099
310.827057	1306.180420	4885.747070	2338.921631	0.539839
311.198456	1242.905151	4964.841309	2300.504395	0.546448
311.569794	1206.747925	4883.487305	2255.307861	0.544870
311.941132	1199.968506	4815.692871	2352.480469	0.496550
312.312408	1193.188965	4962.581543	2192.032715	0.576774
312.683655	1231.606079	4942.243164	2327.622559	0.529631
313.054840	1218.047119	4817.952637	2273.386475	0.532899
313.426056	1256.464111	4856.369629	2244.008789	0.561734
313.797180	1303.920532	4960.321777	2375.078857	0.533200
314.168304	1265.503418	4668.803711	2302.764404	0.516012
314.539368	1188.669312	4754.677246	2210.111328	0.542969
314.910431	1240.645386	4716.260254	2085.820801	0.614085
315.281433	1224.826538	4768.236328	2262.087402	0.533533
315.652435	1197.708618	4994.219238	2377.338623	0.507639
316.023346	1240.645386	4971.620605	2180.733643	0.598654
316.394287	1265.503418	4854.109863	2277.906250	0.549572
316.765137	1247.424805	4795.354004	2271.126709	0.539801
317.135986	1301.660645	4813.432617	2300.504395	0.546029
317.506775	1188.669312	4582.930176	2185.253418	0.532231
317.877594	1373.975220	4702.701172	2194.292725	0.608296
318.248291	1283.582031	4481.238281	2210.111328	0.537973
318.619019	1279.062378	4467.679199	2273.386475	0.506074
318.989655	1265.503418	4542.253418	2178.473877	0.554987
319.360321	1290.361572	4693.662109	2225.930176	0.560825
319.730896	1299.400879	4607.788574	2162.655029	0.583478
320.101501	1215.787231	4729.819336	2180.733643	0.561303
320.472015	1267.763306	4673.323730	2223.670410	0.551773
320.842529	1251.944458	4603.269043	2194.292725	0.551005
321.213013	1288.101685	4596.489258	2210.111328	0.554881
321.583466	1303.920532	4580.670410	2241.749023	0.543320
321.953827	1247.424805	4510.615723	2164.914795	0.551041
322.324188	1303.920532	4587.450195	2187.513184	0.570089
322.694519	1154.771851	4610.048340	2237.229248	0.504072
323.064819	1251.944458	4630.386719	2230.449951	0.538153
323.435059	1315.219727	4709.480957	2309.543701	0.533217
323.805328	1267.763306	4991.958984	2250.788330	0.578468
324.175507	1258.723999	5019.077148	2361.519775	0.532734
324.545685	1260.983765	5181.784668	2266.607178	0.590939
324.915802	1224.826538	5321.894043	2431.574463	0.530857
325.285919	1267.763306	5561.435547	2533.266846	0.530566
325.655975	1211.267578	5649.568848	2558.124756	0.517895
326.025970	1242.905151	5459.743652	2454.172852	0.541747
326.395966	1276.802612	5547.876953	2418.015625	0.573170
326.765930	1238.385498	5504.939941	2433.834229	0.552546
327.135864	1306.180420	5493.641113	2549.085449	0.527513
327.505737	1267.763306	5432.625488	2479.031006	0.536361
327.875580	1290.361572	5437.145020	2474.511230	0.544305
328.245422	1459.848633	5342.232422	2601.061523	0.531732
328.615204	1292.621338	5170.485352	2535.526611	0.494155
328.984955	1303.920532	5028.116211	2429.314697	0.519728
329.354675	1242.905151	5263.138672	2429.314697	0.530017
329.724365	1184.149658	5147.887207	2370.559082	0.523870
330.093994	1227.086426	5073.312988	2424.794922	0.506684
330.463623	1251.944458	5197.603516	2397.677002	0.537036
330.833191	1222.566772	5195.343750	2447.393311	0.511020
331.202759	1227.086426	5204.382813	2411.236084	0.526181
331.572266	1179.630005	5263.138672	2447.393311	0.507995
331.941711	1179.630005	5373.870117	2488.070313	0.505899
332.311188	1279.062378	5281.217285	2485.810303	0.520677
332.680573	1267.763306	5389.688965	2474.511230	0.533484
333.049988	1315.219727	5448.444336	2521.967529	0.534672
333.419312	1251.944458	5800.977539	2587.502686	0.532256
333.788635	1251.944458	5742.222168	2567.164063	0.533275
334.157867	1317.479492	5891.370605	2677.895752	0.526614
334.527130	1193.188965	6067.637207	2594.281982	0.541458
334.896332	1279.062378	6106.054199	2766.029053	0.511375
335.265503	1231.606079	5959.165527	2619.140137	0.532393
335.634613	1321.999146	6191.927734	2763.769287	0.528627
336.003723	1279.062378	6142.211426	2768.288818	0.513957
336.372772	1369.455566	5988.542969	2804.446045	0.507707
336.741821	1247.424805	5861.992676	2718.572510	0.496475
337.110809	1233.865845	5866.512695	2580.723145	0.536508
337.479797	1335.558105	5871.032227	2578.463379	0.562185
337.848724	1335.558105	5907.189453	2623.659912	0.550121
338.217590	1236.125732	6076.676270	2497.109619	0.584185
338.586487	1213.527466	5859.732910	2648.518066	0.510249
338.955292	1224.826538	5925.268066	2614.620605	0.529188
339.324036	1186.409546	5830.355469	2540.046143	0.535385
339.692841	1229.346191	5977.244141	2732.131592	0.499604
340.061523	1188.669312	5830.355469	2558.124756	0.530128
340.430237	1236.125732	5895.890137	2684.675293	0.507431
340.798859	1342.337646	6115.093750	2763.769287	0.526043
341.167511	1260.983765	5871.032227	2576.203369	0.544707
341.536072	1211.267578	5832.615234	2603.321289	0.521113
341.904663	1211.267578	5961.425293	2630.439453	0.524673
342.273102	1272.282959	6108.313965	2648.518066	0.545796
342.641632	1378.494873	6440.508789	2921.957031	0.515827
343.010040	1227.086426	6011.141602	2664.336670	0.522264
343.378510	1105.055664	6304.918945	2625.919678	0.533902
343.746826	1288.101685	6198.707031	2630.439453	0.563273
344.115204	1242.905151	6237.124023	2655.297363	0.548512
344.483490	1240.645386	6243.903809	2691.454590	0.537643
344.851776	1288.101685	6542.201172	2820.264893	0.535193
345.220001	1283.582031	6641.633301	2899.358887	0.520625
345.588196	1263.243652	6831.458984	2867.721191	0.540382
345.956329	1312.959839	6874.395508	2897.099121	0.545394
346.324524	1251.944458	6998.686035	2833.823730	0.560248
346.692596	1179.630005	6910.552734	2885.799805	0.526202
347.060669	1349.117065	7075.520020	3043.987793	0.528745
347.428680	1251.944458	6761.404297	2824.784424	0.544425
347.796692	1224.826538	6632.594238	2786.367432	0.539465
348.164612	1199.968506	6451.807617	2695.974365	0.545378
348.532562	1306.180420	6558.019531	2890.319580	0.520518
348.900421	1342.337646	6560.279785	2876.760498	0.531554
349.268311	1245.165039	6390.792480	2709.533203	0.545788
349.636108	1256.464111	6356.895020	2833.823730	0.509676
350.003906	1251.944458	6379.493164	2745.690430	0.535633
350.371643	1270.023071	6404.351563	2802.186279	0.525179
350.739380	1337.817993	6774.963379	2908.398193	0.539311
351.107025	1184.149658	6533.161621	2919.697266	0.488837
351.474701	1222.566772	6614.515625	2727.611816	0.554196
351.842285	1193.188965	6643.893066	2903.878418	0.503281
352.209900	1195.448853	6865.356445	2818.005127	0.543376
352.577393	1285.841919	6817.899902	2899.358887	0.535113
352.944946	1209.007813	6709.428223	2738.911133	0.555732
353.312378	1299.400879	6860.836426	2836.083740	0.558603
353.679840	1152.512085	6930.891113	2829.304199	0.537327
354.047211	1229.346191	7147.834961	3003.310791	0.523266
354.414612	1157.031738	7254.046875	2874.500732	0.550228
354.781891	1195.448853	7486.809082	2967.153564	0.550353
355.149231	1256.464111	7491.328613	3010.090332	0.550890
355.516449	1283.582031	7719.571289	2998.791260	0.574298
355.883698	1245.165039	7728.610352	3082.404785	0.547640
356.250854	1202.228271	7721.831055	3276.750000	0.497303
356.618011	1274.542725	8404.298828	3211.215088	0.566019
356.985168	1247.424805	8372.661133	3236.073242	0.554241
357.352234	1301.660645	8625.761719	3321.946533	0.559341
357.719269	1229.346191	8921.799805	3371.662842	0.555181
358.086304	1265.503418	9005.413086	3346.804688	0.570401
358.453278	1231.606079	9324.048828	3516.291748	0.549253
358.820190	1170.590698	9493.536133	3606.684814	0.533583
359.187103	1195.448853	9762.455078	3525.331055	0.565495
359.554016	1157.031738	9606.527344	3620.243896	0.535329
359.920837	1204.488159	9186.199219	3439.457520	0.552824
360.287628	1199.968506	9391.843750	3495.953369	0.552414
360.654388	1179.630005	9520.653320	3527.590820	0.550528
361.021149	1240.645386	9769.234375	3697.077881	0.540572
361.387848	1227.086426	10135.327148	3746.794189	0.548442
361.754486	1233.865845	10883.330078	3794.250488	0.576198
362.121124	1249.684692	11238.123047	3979.556396	0.563355
362.487732	1224.826538	11545.458984	4151.303223	0.547361
362.854279	1297.140991	11999.684570	4248.476074	0.559469
363.220795	1324.259033	11947.708984	4097.067383	0.583346
363.587311	1251.944458	11739.804688	4121.925781	0.562808
363.953735	1242.905151	11007.620117	4017.973389	0.546386
364.320160	1270.023071	10422.325195	3884.643555	0.544122
364.686554	1233.865845	9597.488281	3525.331055	0.562281
365.052887	1177.370239	9364.725586	3382.961914	0.569619
365.419189	1163.811279	8937.618164	3419.119141	0.537428
365.785492	1233.865845	8722.934570	3294.828613	0.560358
366.151703	1193.188965	8763.611328	3152.459473	0.587026
366.517944	1301.660645	8659.659180	3362.623535	0.552690
366.884094	1360.416260	8422.377930	3306.127686	0.559847
367.250214	1274.542725	8460.794922	3163.758545	0.580221
367.616333	1274.542725	8458.535156	3274.490234	0.555347
367.982361	1281.322266	8352.323242	3143.420166	0.579478
368.348419	1159.291626	8374.920898	3208.955322	0.546592
368.714386	1260.983765	8352.323242	3105.003174	0.584963
369.080383	1245.165039	8248.371094	3134.380859	0.569015
369.446289	1326.518799	8280.008789	3206.695313	0.568004
369.812195	1317.479492	8078.883789	3073.365479	0.585541
370.178009	1218.047119	7993.010254	3016.869873	0.575919
370.543854	1177.370239	8146.678711	2996.531494	0.583319
370.909607	1213.527466	8221.252930	3010.090332	0.591135
371.275360	1251.944458	7990.750488	3030.428711	0.578533
371.641052	1218.047119	8209.954102	3093.704102	0.571442
372.006744	1231.606079	8316.166016	3138.900635	0.569895
372.372375	1349.117065	8499.211914	3091.444092	0.613182
372.737976	1218.047119	8451.754883	3168.278320	0.569275
373.103546	1258.723999	8560.226563	3163.758545	0.583509
373.469055	1303.920532	8438.196289	3152.459473	0.586521
373.834595	1281.322266	8519.549805	3163.758545	0.584912
374.199982	1263.243652	8456.275391	3034.948486	0.608521
374.565460	1254.204346	8544.408203	3010.090332	0.618243
374.930817	1193.188965	8395.259766	3080.145020	0.581696
375.296204	1193.188965	8702.595703	3086.924561	0.598286
375.661499	1227.086426	8881.122070	2987.492188	0.638278
376.026825	1344.597412	8982.814453	3109.522705	0.636266
376.391998	1218.047119	9012.192383	3030.428711	0.633519
376.757263	1272.282959	9446.079102	3127.601318	0.644005
377.122406	1260.983765	9757.935547	3127.601318	0.658208
377.487549	1184.149658	9866.407227	3154.719238	0.644041
377.852631	1222.566772	10105.949219	3233.813232	0.645113
378.217743	1260.983765	10533.056641	3349.064453	0.647430
378.582764	1303.920532	10490.120117	3294.828613	0.664085
378.947754	1270.023071	10501.418945	3333.245850	0.650721
379.312714	1209.007813	10528.537109	3197.656006	0.670836
379.677673	1186.409546	9776.014648	3141.160400	0.642882
380.042542	1209.007813	9681.101563	3050.767334	0.662758
380.407379	1175.110352	9452.859375	3014.610107	0.653212
380.772186	1179.630005	9335.347656	2953.594727	0.662517
381.136993	1175.110352	9177.160156	2912.917725	0.663200
381.501740	1249.684692	9215.577148	2964.893799	0.666917
381.866486	1245.165039	9387.324219	2933.256348	0.683344
382.231110	1211.267578	9324.048828	2863.201660	0.691177
382.595764	1202.228271	9161.340820	2806.705811	0.695531
382.960327	1186.409546	8957.957031	2903.878418	0.655619
383.324951	1184.149658	9098.066406	2831.563965	0.681589
383.689453	1321.999146	9278.852539	2779.587891	0.737106
384.053986	1236.125732	9504.834961	2903.878418	0.695306
384.418396	1297.140991	9821.210938	2955.854492	0.710876
384.782867	1265.503418	9875.446289	2924.217041	0.715229
385.147217	1310.700073	9868.666992	3043.987793	0.693500
385.511597	1215.787231	9983.917969	2833.823730	0.733919
385.875885	1197.708618	9945.500977	2937.775879	0.701332
386.240204	1310.700073	9827.990234	2953.594727	0.714692
386.604401	1152.512085	10176.003906	2928.736572	0.705877
386.968628	1342.337646	10169.224609	2944.555420	0.741086
387.332764	1141.212891	10151.145508	2795.406738	0.736135
387.696930	1238.385498	10365.829102	2827.044434	0.759318
388.061005	1312.959839	10693.503906	3048.507568	0.732791
388.425140	1251.944458	10686.724609	2935.516113	0.748500
388.789124	1254.204346	10404.246094	2964.893799	0.728252
389.153168	1199.968506	10585.032227	2919.697266	0.736977
389.517090	1168.330933	10478.820313	2813.485352	0.752766
389.881042	1256.464111	10356.790039	2822.524658	0.764248
390.244873	1247.424805	10401.986328	2820.264893	0.764953
390.608734	1353.636719	10580.512695	2849.642578	0.790121
390.972534	1301.660645	10693.503906	2747.950439	0.812496
391.336304	1242.905151	10738.701172	2811.225586	0.782097
391.700043	1231.606079	10942.084961	2820.264893	0.786210
392.063751	1254.204346	11333.035156	2797.666504	0.814914
392.427399	1263.243652	11525.121094	2777.328125	0.831077
392.791077	1446.289673	12017.763672	3066.586182	0.814541
393.154663	1288.101685	11733.025391	2926.476807	0.804492
393.518219	1324.259033	11586.135742	2892.579346	0.815792
393.881744	1310.700073	11714.946289	2942.295654	0.804598
394.245209	1288.101685	11403.089844	2937.775879	0.787567
394.608704	1154.771851	11337.554688	2738.911133	0.808073
394.972107	1199.968506	11681.048828	2915.177734	0.786089
395.335480	1254.204346	11642.631836	2811.225586	0.824255
395.698792	1274.542725	12006.463867	2711.793213	0.873145
396.062103	1333.298340	11538.679688	2921.957031	0.807799
396.425385	1306.180420	11305.917969	2553.605225	0.903974
396.788635	1229.346191	10876.550781	2587.502686	0.851452
397.151825	1204.488159	10763.558594	2573.943604	0.843868
397.514984	1276.802612	10684.464844	2571.683838	0.861252
397.878113	1312.959839	10496.899414	2542.306152	0.873355
398.241180	1290.361572	10347.750977	2483.550537	0.880294
398.604248	1238.385498	10279.956055	2596.541992	0.823294
398.967285	1224.826538	10169.224609	2427.054932	0.871564
399.330231	1204.488159	10456.222656	2571.683838	0.830392
399.693176	1238.385498	10239.279297	2411.236084	0.885043
400.056091	1247.424805	10293.514648	2433.834229	0.882226
400.418976	1220.306885	10381.648438	2352.480469	0.908046
400.781830	1281.322266	10214.420898	2332.142090	0.929474
401.144592	1204.488159	10081.090820	2377.338623	0.879004
401.507355	1270.023071	10157.924805	2585.242676	0.829801
401.870087	1190.929199	10072.051758	2350.220703	0.884275
402.232758	1179.630005	10318.373047	2384.118164	0.880084
402.595428	1319.739380	10237.019531	2515.188232	0.872701
402.958038	1276.802612	10474.300781	2526.487305	0.866869
403.320618	1204.488159	10637.008789	2388.637695	0.901221
403.683167	1222.566772	10872.030273	2499.369385	0.878379
404.045654	1306.180420	11068.635742	2540.046143	0.898291
404.408142	1279.062378	10811.015625	2456.432617	0.908269
404.770569	1179.630005	11091.234375	2438.354004	0.896213
405.132996	1355.896606	11579.356445	2580.723145	0.921523
405.495331	1215.787231	11703.647461	2549.085449	0.895760
405.857666	1294.881226	11897.992188	2677.895752	0.884607
406.219940	1231.606079	11879.914063	2429.314697	0.948929
406.582214	1224.826538	11812.119141	2533.266846	0.908031
406.944427	1245.165039	11714.946289	2508.408691	0.918450
407.306549	1188.669312	11328.515625	2381.858398	0.929322
407.668732	1270.023071	11321.736328	2418.015625	0.942301
408.030792	1292.621338	11398.570313	2440.613770	0.944638
408.392914	1166.071045	11283.319336	2397.677002	0.914591
408.754883	1301.660645	11023.439453	2282.425781	0.996181
409.116943	1281.322266	11403.089844	2372.819092	0.967234
409.478882	1303.920532	11461.845703	2314.063477	1.002422
409.840820	1351.376953	11712.686523	2506.148926	0.952918
410.202667	1204.488159	11543.199219	2329.882324	0.963162
410.564575	1292.621338	11705.907227	2483.550537	0.941702
410.926331	1283.582031	11821.158203	2397.677002	0.975819
411.288147	1297.140991	11760.142578	2427.054932	0.966611
411.649872	1202.228271	12049.400391	2347.960938	0.976233
412.011566	1215.787231	11547.718750	2246.268555	1.001141
412.373199	1294.881226	11631.333008	2415.755615	0.964815
412.734894	1229.346191	11434.727539	2384.118164	0.946333
413.096436	1184.149658	11075.415039	2314.063477	0.942207
413.458008	1272.282959	11253.941406	2244.008789	1.011659
413.819519	1245.165039	11369.192383	2316.323242	0.975500
414.181030	1238.385498	11351.114258	2192.032715	1.025481
414.542450	1179.630005	11339.815430	2214.631104	0.991961
414.903870	1215.787231	11608.734375	2372.819092	0.953393
415.265198	1245.165039	11789.520508	2352.480469	0.978749
415.626587	1209.007813	11949.968750	2386.377930	0.960130
415.987854	1240.645386	11983.866211	2293.725098	1.008673
416.349152	1175.110352	12587.240234	2257.567871	1.022956
416.710327	1233.865845	12164.652344	2309.543701	1.006969
417.071533	1263.243652	12352.217773	2268.866943	1.042456
417.432678	1317.479492	12749.947266	2379.598389	1.031967
417.793823	1199.968506	13229.031250	2390.897705	1.004346
418.154877	1190.929199	13405.297852	2386.377930	1.009340
418.515930	1254.204346	13929.577148	2449.653076	1.025430
418.876923	1249.684692	14444.818359	2549.085449	1.006671
419.237915	1258.723999	14948.759766	2580.723145	1.015173
419.598816	1301.660645	15351.008789	2673.375977	1.010392
419.959717	1195.448853	15619.928711	2619.140137	1.005684
420.320526	1136.693237	16634.591797	2643.998291	1.012072
420.681396	1412.392212	17100.115234	2820.264893	1.046996
421.042145	1251.944458	17540.781250	2714.052979	1.046910
421.402924	1170.590698	18078.621094	2759.249512	1.027062
421.763580	1224.826538	18648.097656	2779.587891	1.049466
422.124298	1254.204346	19149.779297	2838.343506	1.052952
422.484894	1292.621338	19579.146484	3005.570801	1.028387
422.845520	1272.282959	19292.148438	2901.618652	1.043741
423.206055	1184.149658	19246.951172	2827.044434	1.041175
423.566589	1213.527466	18781.427734	2677.895752	1.079069
423.927063	1285.841919	19077.464844	2827.044434	1.062356
424.287506	1181.889893	18822.103516	2811.225586	1.034493
424.647949	1204.488159	18761.087891	2720.832520	1.063643
425.008301	1186.409546	19149.779297	2734.391357	1.064622
425.368652	1272.282959	19039.046875	2822.524658	1.059209
425.728943	1301.660645	18878.599609	2702.753906	1.098476
426.089203	1297.140991	19104.582031	2781.847900	1.078961
426.449432	1303.920532	18661.656250	2693.714600	1.096543
426.809601	1319.739380	18752.048828	2750.210205	1.085876
427.169739	1240.645386	18442.453125	2702.753906	1.070595
427.529846	1274.542725	18385.957031	2845.123047	1.037226
427.889954	1371.715332	17798.402344	2738.911133	1.079719
428.250000	1331.038452	17531.742188	2601.061523	1.105722
428.609985	1270.023071	16903.509766	2564.904297	1.081826
428.969940	1285.841919	16514.820313	2637.218750	1.051894
429.329865	1258.723999	16401.828125	2551.345459	1.068744
429.689789	1279.062378	16284.317383	2589.762451	1.058740
430.049622	1276.802612	15952.123047	2512.928223	1.074525
430.409454	1283.582031	15992.799805	2424.794922	1.110223
430.769226	1256.464111	15635.747070	2490.330078	1.066469
431.128937	1267.763306	15534.054688	2311.803711	1.135594
431.488678	1184.149658	15554.393555	2449.653076	1.055201
431.848328	1177.370239	15809.753906	2431.574463	1.066947
432.207947	1265.503418	15595.070313	2431.574463	1.089508
432.567566	1258.723999	15832.352539	2460.952393	1.083581
432.927124	1238.385498	15963.421875	2472.251465	1.076788
433.286621	1256.464111	16478.662109	2472.251465	1.097620
433.646118	1247.424805	16743.062500	2519.707764	1.085626
434.005554	1270.023071	16679.787109	2510.668457	1.094148
434.364960	1265.503418	16889.951172	2589.762451	1.071832
434.724335	1285.841919	16668.488281	2526.487305	1.093383
435.083649	1254.204346	16370.191406	2585.242676	1.055246
435.442932	1240.645386	16469.623047	2594.281982	1.051169
435.802216	1355.896606	16381.490234	2637.218750	1.069173
436.161407	1353.636719	16218.783203	2589.762451	1.080106
436.520630	1251.944458	16245.900391	2508.408691	1.076766
436.879761	1220.306885	16417.648438	2596.541992	1.043075
437.238831	1186.409546	16512.560547	2526.487305	1.058303
437.597931	1267.763306	16795.039063	2524.227539	1.091945
437.956940	1224.826538	16783.740234	2488.070313	1.090492
438.315948	1283.582031	16815.376953	2576.203369	1.079750
438.674896	1274.542725	16969.044922	2445.133545	1.127342
439.033844	1276.802612	16596.173828	2524.227539	1.089226
439.392700	1254.204346	17014.242188	2535.526611	1.089899
439.751556	1231.606079	17124.974609	2578.463379	1.071894
440.110352	1209.007813	17778.064453	2558.124756	1.089248
440.469116	1227.086426	17915.914063	2634.958984	1.073862
440.827850	1260.983765	18193.873047	2623.659912	1.094338
441.186554	1303.920532	18804.025391	2736.651123	1.086876
441.545197	1195.448853	18643.578125	2727.611816	1.056444
441.903809	1317.479492	19093.283203	2747.950439	1.094350
442.262390	1251.944458	19113.621094	2698.234131	1.091667
442.620941	1290.361572	18605.160156	2666.596680	1.099725
442.979462	1118.614624	18693.294922	2592.022217	1.076565
443.337921	1263.243652	18401.775391	2664.336670	1.087507
443.696350	1245.165039	18046.982422	2619.140137	1.087377
444.054718	1256.464111	18189.351563	2682.415283	1.074626
444.413086	1299.400879	18297.824219	2725.352051	1.076304
444.771423	1301.660645	18711.373047	2858.681885	1.048497
445.129669	1256.464111	17859.417969	2657.557373	1.073718
445.487915	1170.590698	17179.208984	2637.218750	1.038034
445.846130	1258.723999	17868.457031	2596.541992	1.093966
446.204285	1220.306885	17884.275391	2634.958984	1.071129
446.562408	1306.180420	18858.261719	2750.210205	1.084753
446.920532	1218.047119	19414.179688	2689.194824	1.092323
447.278595	1247.424805	19994.955078	2838.343506	1.071296
447.636566	1251.944458	20559.912109	2976.192871	1.049137
447.994568	1326.518799	21222.041016	2910.657959	1.098962
448.352509	1353.636719	20903.406250	3010.090332	1.071962
448.710419	1188.669312	21176.843750	2833.823730	1.084566
449.068237	1263.243652	20790.414063	2860.941650	1.087145
449.426056	1238.385498	20950.861328	2969.413574	1.056437
449.783844	1274.542725	20284.212891	2885.799805	1.071810
450.141602	1303.920532	20035.630859	2811.225586	1.094376
450.499329	1281.322266	19669.539063	2885.799805	1.059206
450.856964	1292.621338	18889.898438	2874.500732	1.046272
451.214630	1251.944458	19106.841797	2799.926514	1.061991
451.572235	1231.606079	18627.759766	2738.911133	1.062252
451.929779	1238.385498	18496.689453	2804.446045	1.042190
452.287323	1242.905151	18860.521484	2876.760498	1.032734
452.644806	1276.802612	18740.750000	2813.485352	1.055558
453.002258	1310.700073	18772.388672	2829.304199	1.060642
453.359650	1333.298340	18288.785156	2908.398193	1.032002
453.717010	1319.739380	18293.304688	2885.799805	1.034965
454.074341	1218.047119	17766.765625	2716.312744	1.043176
454.431641	1335.558105	17793.882813	2655.297363	1.095897
454.788910	1247.424805	17192.767578	2766.029053	1.021189
455.146118	1247.424805	17411.972656	2709.533203	1.043584
455.503296	1168.330933	17260.562500	2766.029053	1.003121
455.860443	1258.723999	17538.521484	2705.013672	1.051394
456.217560	1270.023071	16776.960938	2793.146973	1.007791
456.574615	1367.195679	16892.210938	2768.288818	1.044565
456.931641	1362.676025	17292.201172	2964.893799	0.997481
457.288635	1263.243652	17158.871094	2732.131592	1.034289
457.645599	1276.802612	17023.281250	2700.493896	1.043768
458.002502	1238.385498	17118.193359	2849.642578	0.993680
458.359375	1224.826538	17497.845703	2829.304199	1.006135
458.716217	1202.228271	18058.283203	2910.657959	0.994159
459.073029	1213.527466	18862.781250	2953.594727	1.006160
459.429779	1281.322266	19983.656250	3188.616699	0.991478
459.786499	1240.645386	20932.783203	3267.710693	0.987425
460.143219	1220.306885	22017.500000	3346.804688	0.990340
460.499847	1215.787231	22645.732422	3346.804688	1.002434
460.856476	1283.582031	23025.382813	3615.724121	0.969540
461.213043	1231.606079	23294.302734	3577.307129	0.973386
461.569550	1245.165039	22620.875000	3599.905273	0.957978
461.926056	1410.132446	22634.433594	3624.763428	0.981532
462.282501	1263.243652	21811.855469	3602.165283	0.943767
462.638916	1279.062378	20794.933594	3434.937988	0.956764
462.995331	1213.527466	20087.607422	3312.907227	0.953775
463.351654	1233.865845	19897.781250	3405.560303	0.934204
463.707947	1258.723999	19294.408203	3340.025146	0.937798
464.064209	1344.597412	19190.457031	3407.820068	0.936991
464.420441	1240.645386	18905.718750	3285.789307	0.936392
464.776642	1258.723999	18519.287109	3274.490234	0.932615
465.132782	1267.763306	18650.357422	3358.103760	0.919898
465.488892	1240.645386	18356.580078	3412.339600	0.896602
465.844971	1288.101685	18785.947266	3475.614990	0.903034
466.201019	1283.582031	18743.009766	3520.811523	0.892319
466.557007	1209.007813	18935.095703	3518.551514	0.885087
466.912964	1206.747925	19072.945313	3617.984131	0.869792
467.268890	1270.023071	19030.007813	3559.228516	0.889758
467.624756	1195.448853	19554.289063	3719.676270	0.861717
467.980591	1229.346191	20026.591797	3629.283203	0.893894
468.336426	1294.881226	19881.962891	3830.407715	0.865143
468.692169	1209.007813	19353.164063	3753.573730	0.853123
469.047913	1242.905151	19163.337891	3769.392578	0.850831
469.403625	1179.630005	18851.482422	3737.754883	0.839360
469.759247	1197.708618	18623.240234	3674.479736	0.847300
470.114838	1231.606079	18442.453125	3819.108643	0.822921
470.470459	1181.889893	18535.105469	3900.462402	0.805039
470.825958	1227.086426	17999.527344	3712.896729	0.829128
471.181488	1229.346191	18248.107422	3959.218018	0.794786
471.536926	1263.243652	18205.171875	3970.517090	0.796431
471.892365	1215.787231	18239.068359	3925.320557	0.798149
472.247742	1321.999146	18311.382813	4094.807617	0.787258
472.603058	1274.542725	18539.625000	4049.611084	0.793895
472.958374	1306.180420	18901.197266	4289.152832	0.770741
473.313629	1209.007813	19219.833984	4133.224609	0.789524
473.668884	1251.944458	18926.056641	4323.050293	0.760043
474.024048	1245.165039	19194.976563	4295.932129	0.769651
474.379211	1206.747925	19346.384766	4501.576660	0.740796
474.734314	1285.841919	19466.154297	4345.648438	0.773907
475.089417	1190.929199	19129.441406	4551.292969	0.727400
475.444458	1157.031738	19179.156250	4564.851563	0.723329
475.799438	1163.811279	19276.330078	4619.087402	0.719496
476.154388	1213.527466	19558.808594	4813.432617	0.707233
476.509308	1260.983765	19859.365234	4971.620605	0.700027
476.864197	1285.841919	20055.970703	5034.895996	0.699546
477.219025	1186.409546	20521.494141	4971.620605	0.708256
477.573822	1147.992432	20898.886719	5224.721680	0.685275
477.928619	1288.101685	21490.960938	5425.846191	0.688649
478.283325	1274.542725	21667.226563	5536.577637	0.679857
478.638000	1220.306885	21947.445313	5615.671387	0.673544
478.992676	1229.346191	22356.474609	5859.732910	0.659223
479.347260	1405.612793	22774.542969	6191.927734	0.649782
479.701843	1260.983765	22652.511719	5943.346680	0.659777
480.056366	1222.566772	23059.281250	6112.833496	0.649855
480.410858	1247.424805	23734.968750	6521.862305	0.629766
480.765320	1256.464111	24058.125000	6567.059082	0.632823
481.119751	1206.747925	24989.173828	6896.993652	0.621125
481.474091	1204.488159	25502.154297	7127.496094	0.613022
481.828430	1263.243652	26697.603516	7525.226074	0.608709
482.182709	1297.140991	28839.919922	8008.829102	0.613176
482.536987	1184.149658	30742.695313	8368.141602	0.614317
482.891174	1333.298340	33703.070313	9430.260742	0.601817
483.245361	1222.566772	38179.789063	10424.584961	0.603816
483.599518	1245.165039	44331.039063	11886.693359	0.607331
483.953644	1254.204346	49528.640625	13516.029297	0.595162
484.307678	1193.188965	52778.273438	14894.523438	0.575761
484.661713	1263.243652	54735.285156	15703.541992	0.568551
485.015686	1222.566772	55813.222656	16173.585938	0.562447
485.369659	1193.188965	55128.496094	16169.066406	0.556481
485.723572	1215.787231	53270.917969	15699.022461	0.555598
486.077423	1195.448853	50629.179688	14627.864258	0.565869
486.431274	1193.188965	48007.777344	14053.868164	0.561117
486.785034	1249.684692	46697.078125	13513.769531	0.568874
487.138794	1190.929199	46294.828125	13705.854492	0.556786
487.492523	1258.723999	46828.148438	14207.536133	0.546444
487.846191	1206.747925	47614.566406	14442.558594	0.544841
488.199829	1240.645386	48649.570313	14670.800781	0.547779
488.553436	1254.204346	48502.679688	14856.106445	0.540788
488.906982	1270.023071	47734.339844	14788.311523	0.536198
489.260529	1247.424805	45953.593750	14743.115234	0.520172
489.613983	1240.645386	45013.507813	14119.403320	0.531331
489.967438	1297.140991	42387.585938	13762.350586	0.518041
490.320831	1251.944458	40742.433594	12901.355469	0.530189
490.674194	1263.243652	39983.128906	13145.416992	0.513038
491.027527	1170.590698	39533.425781	12966.890625	0.512165
491.380798	1202.228271	41122.082031	13717.153320	0.503761
491.734070	1211.267578	42631.648438	14019.970703	0.509709
492.087250	1197.708618	43058.753906	14397.361328	0.501248
492.440430	1283.582031	43942.347656	14372.503906	0.513104
492.793549	1258.723999	42697.183594	14329.567383	0.501100
493.146637	1206.747925	41985.335938	14017.710938	0.502850
493.499695	1249.684692	39942.453125	13678.736328	0.493192
493.852692	1258.723999	36905.246094	12829.041016	0.488672
494.205658	1285.841919	34295.144531	11938.668945	0.491171
494.558594	1360.416260	32787.839844	11362.413086	0.497222
494.911499	1279.062378	30541.570313	11136.430664	0.472551
495.264374	1274.542725	29323.523438	10659.606445	0.475480
495.617188	1331.038452	28399.253906	10555.654297	0.467511
495.969940	1260.983765	27827.517578	10381.648438	0.464308
496.322693	1238.385498	27757.462891	10239.279297	0.469273
496.675385	1276.802612	27915.650391	10214.420898	0.474294
497.028015	1301.660645	28320.160156	10458.482422	0.469916
497.380676	1218.047119	27845.595703	10472.041016	0.459002
497.733246	1215.787231	28340.498047	10510.458008	0.465131
498.085785	1911.814209	29334.822266	11168.068359	0.471680
498.438263	1290.361572	28195.869141	10390.687500	0.470784
498.790710	1240.645386	27920.169922	10227.979492	0.472547
499.143158	1297.140991	27165.388672	10180.523438	0.464189
499.495544	1254.204346	26971.042969	10237.019531	0.456805
499.847870	1188.669312	26715.681641	9737.597656	0.475088
500.200165	1150.252197	26207.220703	9816.691406	0.461088
500.552429	1288.101685	25915.703125	9540.992188	0.474816
500.904663	1229.346191	25099.906250	9400.882813	0.465559
501.256866	1294.881226	24896.521484	9378.284180	0.465348
501.609009	1254.204346	24530.429688	9256.253906	0.463711
501.961090	1218.047119	23949.652344	9138.743164	0.457867
502.313171	1249.684692	24112.361328	9089.026367	0.464847
502.665253	1166.071045	24015.187500	9093.545898	0.459735
503.017181	1265.503418	24055.865234	8966.996094	0.471176
503.369110	1175.110352	23771.126953	9016.711914	0.459627
503.721069	1290.361572	23850.220703	9050.609375	0.463461
504.072937	1258.723999	23945.132813	9043.830078	0.464501
504.424774	1172.850586	23976.771484	8840.445313	0.473350
504.776520	1204.488159	23895.417969	8838.185547	0.473117
505.128265	1229.346191	24082.982422	8829.146484	0.478153
505.480042	1303.920532	24220.832031	9095.805664	0.468514
505.831665	1233.865845	24304.445313	8942.137695	0.476101
506.183289	1159.291626	23906.716797	8596.383789	0.485529
506.534882	1168.330933	23832.142578	8912.759766	0.466344
506.886505	1236.125732	23827.623047	8901.460938	0.469414
507.237946	1179.630005	23716.890625	8729.713867	0.474949
507.589417	1195.448853	23949.652344	8648.360352	0.484736
507.940857	1308.440186	23868.298828	8998.633789	0.467399
508.292297	1258.723999	24008.408203	8729.713867	0.483597
508.643616	1197.708618	24281.847656	8576.045898	0.495355
508.994904	1204.488159	24650.199219	8797.508789	0.489649
509.346191	1331.038452	25045.669922	8858.524414	0.498366
509.697479	1242.905151	24989.173828	8849.485352	0.494406
510.048645	1181.889893	25409.501953	8930.838867	0.495068
510.399780	1337.817993	25615.146484	8774.910156	0.513798
510.750916	1263.243652	25429.839844	8829.146484	0.504355
511.102051	1251.944458	25635.484375	8795.249023	0.509535
511.453033	1279.062378	25793.671875	9100.326172	0.496148
511.804016	1215.787231	26150.724609	8964.736328	0.507565
512.154968	1184.149658	26028.695313	8985.074219	0.503085
512.505920	1263.243652	26650.146484	8921.799805	0.520463
512.856750	1251.944458	26376.707031	9005.413086	0.510606
513.207581	1276.802612	26218.519531	8872.083008	0.516383
513.558411	1240.645386	26223.039063	8738.752930	0.522682
513.909180	1179.630005	26281.794922	8928.579102	0.510468
514.259888	1288.101685	26001.576172	8876.602539	0.512778
514.610535	1238.385498	25630.964844	8722.934570	0.513092
514.961182	1132.173584	25664.861328	8684.517578	0.511663
515.311829	1166.071045	25710.058594	8472.093750	0.526264
515.662354	1292.621338	25461.478516	8917.279297	0.501036
516.012878	1301.660645	25601.587891	8646.100586	0.519646
516.363281	1218.047119	25832.089844	8779.430664	0.512582
516.713745	1125.394165	25771.074219	8689.037109	0.513010
517.064209	1213.527466	26629.808594	8659.659180	0.533181
517.414490	1157.031738	27183.466797	8718.415039	0.536813
517.764832	1204.488159	27554.078125	9064.168945	0.525369
518.115173	1193.188965	28207.167969	9186.199219	0.528878
518.465393	1256.464111	29664.757813	9547.771484	0.534822
518.815552	1220.306885	30297.509766	9778.274414	0.531182
519.165710	1306.180420	31239.857422	9990.698242	0.537414
519.515869	1175.110352	30378.863281	9536.472656	0.543162
519.865967	1220.306885	30715.576172	9798.612305	0.536351
520.216003	1220.306885	30528.011719	9473.197266	0.550376
520.565918	1260.983765	29800.347656	9615.566406	0.533520
520.915955	1240.645386	29366.458984	9344.386719	0.540420
521.265869	1188.669312	28909.974609	9296.930664	0.533886
521.615723	1238.385498	28313.380859	8924.059570	0.546886
521.965576	1333.298340	27920.169922	9055.128906	0.536947
522.315369	1172.850586	27816.218750	8702.595703	0.548809
522.665161	1175.110352	27685.148438	8750.052734	0.544031
523.014832	1260.983765	27719.044922	8908.240234	0.539052
523.364502	1263.243652	27382.332031	8702.595703	0.545423
523.714172	1267.763306	27714.525391	8813.328125	0.544681
524.063782	1294.881226	28706.589844	9066.428711	0.547429
524.413330	1186.409546	28792.462891	8953.436523	0.550750
524.762817	1224.826538	29700.914063	9296.930664	0.547494
525.112366	1236.125732	30912.181641	9685.621094	0.545575
525.461792	1197.708618	32051.134766	9925.163086	0.548416
525.811157	1321.999146	33786.683594	10196.341797	0.563275
526.160522	1233.865845	34442.031250	10535.316406	0.552694
526.509827	1272.282959	35700.757813	10975.982422	0.549980
526.859131	1218.047119	36794.511719	10985.022461	0.561403
527.208313	1299.400879	38776.382813	11425.688477	0.568314
527.557495	1281.322266	40148.097656	11918.331055	0.562759
527.906738	1220.306885	42600.011719	12609.837891	0.560282
528.255859	1233.865845	46606.683594	13739.751953	0.559681
528.604919	1177.370239	50100.378906	14767.973633	0.556274
528.953918	1303.920532	52771.496094	15531.794922	0.558394
529.302917	1256.464111	54046.039063	15967.942383	0.554892
529.651917	1364.935913	54563.539063	16413.128906	0.548416
530.000793	1258.723999	53792.937500	15821.052734	0.557211
530.349609	1342.337646	52102.585938	15396.205078	0.557728
530.698547	1299.400879	49445.027344	14302.449219	0.568512
531.047302	1283.582031	46159.238281	13366.879883	0.569825
531.396057	1215.787231	43535.578125	12840.340820	0.561167
531.744751	1263.243652	41490.433594	11952.228516	0.575583
532.093445	1161.551392	39978.609375	11633.592773	0.568991
532.442139	1285.841919	40105.160156	11631.333008	0.574297
532.790710	1190.929199	39583.140625	11588.396484	0.567316
533.139160	1154.771851	41348.066406	11816.638672	0.576320
533.487732	1218.047119	41705.117188	12035.841797	0.573178
533.836243	1172.850586	42717.519531	12085.557617	0.580583
534.184631	1120.874512	42618.089844	12218.887695	0.572774
534.533020	1199.968506	42041.832031	12191.769531	0.570037
534.881348	1123.134277	40374.082031	11818.898438	0.564638
535.229736	1175.110352	39433.992188	11414.389648	0.572463
535.577942	1249.684692	37495.058594	11003.100586	0.570096
535.926086	1342.337646	36726.718750	10761.298828	0.574809
536.274353	1193.188965	36231.816406	10670.906250	0.567843
536.622498	1292.621338	36021.652344	10666.386719	0.568779
536.970642	1324.259033	36127.863281	10501.418945	0.578916
537.318665	1163.811279	35619.402344	10578.252930	0.563465
537.666687	1254.204346	35465.734375	10453.962891	0.570396
538.014709	1260.983765	34503.046875	10196.341797	0.570576
538.362610	1283.582031	33736.964844	10069.791992	0.567458
538.710510	1245.165039	32803.656250	9866.407227	0.563546
539.058411	1166.071045	31926.843750	9466.417969	0.568901
539.406250	1251.944458	31531.375000	9405.402344	0.569806
539.753967	1317.479492	31567.531250	9475.457031	0.569144
540.101746	1215.787231	32080.513672	9726.297852	0.559507
540.449463	1215.787231	33368.613281	9868.666992	0.570058
540.797119	1290.361572	35567.425781	10569.213867	0.567509
541.144714	1204.488159	37716.523438	10987.282227	0.571973
541.492249	1240.645386	39822.683594	11836.976563	0.561230
541.839844	1272.282959	42098.328125	12135.274414	0.574988
542.187378	1263.243652	42857.628906	12508.145508	0.568079
542.534790	1229.346191	42993.218750	12347.698242	0.574760
542.882202	1213.527466	42807.914063	12424.532227	0.569390
543.229553	1222.566772	41576.308594	12069.739258	0.570567
543.576965	1161.551392	39485.968750	11855.055664	0.554356
543.924194	1245.165039	37709.742188	11163.548828	0.565430
544.271423	1220.306885	36087.187500	10734.181641	0.564056
544.618652	1177.370239	34595.699219	10655.086914	0.547281
544.965881	1349.117065	33185.570313	10144.366211	0.558677
545.312988	1172.850586	32062.433594	9823.470703	0.552765
545.660034	1344.597412	30968.677734	9787.313477	0.545163
546.007141	1297.140991	30175.478516	9708.219727	0.535720
546.354126	1166.071045	29773.228516	9509.354492	0.535138
546.701111	1181.889893	29667.017578	9470.937500	0.536114
547.048035	1215.787231	29126.917969	9477.716797	0.528696
547.394836	1227.086426	29208.271484	9448.338867	0.531928
547.741699	1179.630005	28383.435547	9238.174805	0.528373
548.088562	1150.252197	28385.695313	9296.930664	0.524154
548.435303	1215.787231	27689.667969	9046.089844	0.529039
548.781921	1188.669312	26675.005859	8840.445313	0.522545
549.128662	1220.306885	25696.500000	8770.390625	0.510792
549.475342	1265.503418	24889.742188	8551.187500	0.510887
549.821899	1224.826538	24318.005859	8478.873047	0.502903
550.168457	1254.204346	23190.351563	8361.362305	0.489464
550.515015	1344.597412	22871.714844	8230.291992	0.495038
550.861511	1274.542725	22406.191406	7950.073730	0.500448
551.207886	1222.566772	22069.476563	8065.324707	0.483811
551.554260	1312.959839	21911.289063	8232.551758	0.473752
551.900635	1315.219727	21626.550781	8212.213867	0.469079
552.247009	1202.228271	22060.437500	8325.205078	0.466615
552.593262	1331.038452	21929.367188	8277.749023	0.472053
552.939392	1238.385498	22275.121094	8618.982422	0.454887
553.285645	1175.110352	21857.052734	8472.093750	0.452448
553.631775	1213.527466	22010.720703	8535.369141	0.453384
553.977905	1199.968506	22092.074219	8713.895508	0.444115
554.323975	1161.551392	21836.714844	8878.862305	0.427983
554.669983	1209.007813	21640.109375	8750.052734	0.432860
555.015991	1204.488159	21244.638672	8618.982422	0.431819
555.361877	1222.566772	20984.759766	8745.533203	0.419446
555.707825	1166.071045	20968.939453	8770.390625	0.415668
556.053711	1181.889893	20462.738281	8661.918945	0.411223
556.399536	1127.653931	20288.732422	8772.650391	0.399043
556.745239	1290.361572	19839.027344	8928.579102	0.385321
557.091003	1249.684692	19696.658203	8842.705078	0.385511
557.436707	1166.071045	19759.933594	9061.909180	0.371971
557.782410	1143.472778	19633.382813	8908.240234	0.376806
558.127991	1206.747925	19335.085938	9172.640625	0.357124
558.473511	1233.865845	19387.060547	9285.631836	0.353062
558.819092	1190.929199	19185.935547	9269.812500	0.347801
559.164612	1157.031738	19039.046875	9455.119141	0.333438
559.510010	1215.787231	18987.072266	9520.653320	0.330386
559.855408	1240.645386	19000.630859	9509.354492	0.332005
560.200806	1249.684692	18853.742188	9387.324219	0.335114
560.546143	1193.188965	18837.923828	9800.872070	0.311729
560.891357	1258.723999	19269.550781	9809.912109	0.323507
561.236633	1331.038452	19226.613281	10013.295898	0.314113
561.581848	1276.802612	19233.392578	10250.578125	0.301249
561.927002	1249.684692	19210.794922	10189.562500	0.303002
562.272095	1163.811279	19389.320313	10510.458008	0.290024
562.617126	1290.361572	19100.062500	10734.181641	0.275509
562.962219	1301.660645	19280.849609	10894.628906	0.272817
563.307251	1260.983765	19102.322266	10878.810547	0.268350
563.652161	1292.621338	19027.748047	11181.626953	0.253682
563.997009	1229.346191	19267.291016	11061.856445	0.263523
564.341919	1215.787231	18957.693359	11378.232422	0.242002
564.686768	1147.992432	19319.265625	11577.096680	0.241138
565.031555	1215.787231	18919.277344	11992.905273	0.215556
565.376282	1383.014526	19685.357422	12004.204102	0.236334
565.721008	1326.518799	19604.003906	12354.477539	0.219421
566.065674	1147.992432	20092.126953	12539.783203	0.220883
566.410278	1190.929199	20489.857422	12749.947266	0.222612
566.754822	1204.488159	21113.570313	13147.676758	0.221931
567.099365	1233.865845	20568.951172	13091.181641	0.212360
567.443909	1172.850586	20874.027344	13484.391602	0.204180
567.788330	1290.361572	20785.894531	13708.114258	0.195892
568.132751	1188.669312	20738.437500	13981.553711	0.184173
568.477112	1231.606079	20281.953125	13988.333008	0.174164
568.821533	1276.802612	20076.308594	14230.134766	0.161765
569.165771	1249.684692	19886.482422	14270.811523	0.155723
569.510010	1254.204346	20175.740234	14510.353516	0.154539
569.854248	1283.582031	19954.277344	14557.809570	0.148151
570.198364	1197.708618	19590.445313	14838.028320	0.129822
570.542542	1218.047119	19877.443359	15222.199219	0.124641
570.886536	1242.905151	20200.599609	15271.915039	0.130759
571.230591	1161.551392	20128.285156	15674.164063	0.116247
571.574646	1177.370239	20297.771484	16051.555664	0.109064
571.918518	1272.282959	20677.421875	16171.326172	0.114758
572.262451	1125.394165	20695.501953	16758.880859	0.097537
572.606323	1184.149658	21179.103516	17014.242188	0.101437
572.950195	1206.747925	21090.970703	17183.728516	0.095014
573.293945	1152.512085	21355.371094	17402.931641	0.094548
573.637695	1254.204346	20684.203125	17443.609375	0.079242
573.981384	1233.865845	20727.138672	17755.464844	0.071833
574.325134	1260.983765	20659.343750	17992.748047	0.064223
574.668701	1206.747925	20670.642578	17933.992188	0.065805
575.012268	1170.590698	20415.283203	18227.769531	0.052404
575.355774	1247.424805	20406.244141	18609.679688	0.042763
575.699341	1279.062378	19981.396484	18883.119141	0.026283
576.042725	1310.700073	20361.046875	19095.542969	0.029853
576.386169	1218.047119	20026.591797	19039.046875	0.023423
576.729553	1290.361572	19637.902344	19127.181641	0.012260
577.072876	1419.171753	19253.730469	19246.951172	0.000165
577.416138	1270.023071	18912.498047	19143.000000	-0.005637
577.759399	1308.440186	18492.169922	19387.060547	-0.022048
578.102600	1172.850586	18207.431641	19339.605469	-0.027946
578.445801	1197.708618	17906.873047	19723.775391	-0.044828
578.788940	1251.944458	17662.812500	19452.595703	-0.044955
579.131897	1260.983765	17454.908203	19572.367188	-0.053369
579.474976	1312.959839	17201.808594	20019.812500	-0.070908
579.817993	1215.787231	16894.470703	19972.357422	-0.077844
580.160950	1233.865845	16697.867188	19868.404297	-0.080997
580.503845	1231.606079	16248.160156	20067.269531	-0.098411
580.846680	1154.771851	16047.036133	20413.023438	-0.111656
581.189514	1265.503418	15947.603516	20270.654297	-0.112083
581.532349	1159.291626	15895.626953	20474.039063	-0.117500
581.875061	1152.512085	15854.950195	20824.310547	-0.126455
582.217773	1317.479492	15791.675781	20681.941406	-0.126411
582.560425	1317.479492	15741.958984	21350.851563	-0.142654
582.903076	1263.243652	15735.179688	21167.804688	-0.138426
583.245667	1152.512085	15506.937500	21328.253906	-0.147844
583.588135	1245.165039	15459.480469	21590.392578	-0.155737
583.930664	1270.023071	15366.828125	21542.937500	-0.157795
584.273071	1292.621338	15565.692383	21802.816406	-0.157452
584.615479	1166.071045	15267.395508	21859.312500	-0.166569
584.957825	1163.811279	15127.286133	22107.892578	-0.176068
585.300232	1233.865845	15253.835938	22281.900391	-0.176464
585.642517	1224.826538	15086.609375	22598.275391	-0.188056
585.984680	1242.905151	15084.349609	22663.810547	-0.189656
586.326843	1326.518799	15219.939453	22575.677734	-0.184533
586.669067	1233.865845	15036.892578	22781.322266	-0.193422
587.011230	1288.101685	15344.229492	22851.376953	-0.185849
587.353271	1150.252197	14978.137695	22869.455078	-0.196088
587.695251	1168.330933	14880.964844	23118.037109	-0.204308
588.037231	1224.826538	15125.026367	23262.666016	-0.200148
588.379211	1301.660645	15228.978516	23319.162109	-0.198901
588.721069	1281.322266	15161.183594	23732.708984	-0.208858
589.062927	1227.086426	15113.727539	23734.968750	-0.209737
589.404785	1247.424805	15402.985352	23863.779297	-0.203496
589.746582	1163.811279	15154.404297	23902.197266	-0.210924
590.088257	1227.086426	15488.858398	24211.792969	-0.207265
590.429932	1265.503418	15380.386719	24272.808594	-0.212188
590.771606	1181.889893	15177.001953	24385.798828	-0.219585
591.113220	1249.684692	15617.668945	24684.097656	-0.212458
591.454773	1387.534180	15373.607422	24717.994141	-0.222228
591.796265	1220.306885	15077.570313	24324.785156	-0.222019
592.137817	1258.723999	14869.666016	24605.003906	-0.234329
592.479248	1236.125732	15014.294922	24453.593750	-0.226623
592.820618	1206.747925	15145.364258	24399.359375	-0.221130
593.161926	1251.944458	14758.934570	24553.027344	-0.236817
593.503296	1301.660645	14867.406250	24636.640625	-0.235564
593.844604	1276.802612	15082.089844	24928.158203	-0.233811
594.185791	1251.944458	15122.766602	25002.732422	-0.233576
594.526917	1281.322266	15012.035156	25007.251953	-0.237530
594.868103	1324.259033	15482.079102	25183.519531	-0.226661
595.209229	1299.400879	15357.788086	25077.306641	-0.228238
595.550232	1209.007813	15719.361328	25574.468750	-0.225097
595.891235	1213.527466	15958.902344	25578.988281	-0.218119
596.232178	1294.881226	15986.020508	25680.681641	-0.220082
596.573181	1274.542725	16239.121094	26177.843750	-0.221192
596.914063	1270.023071	16770.181641	26067.111328	-0.204065
597.254883	1166.071045	16874.132813	26204.960938	-0.202493
597.595703	1328.778687	17163.390625	26272.755859	-0.197358
597.936462	1213.527466	17131.753906	26487.439453	-0.200778
598.277161	1145.732544	16989.384766	26112.308594	-0.197504
598.617798	1267.763306	16164.546875	25793.671875	-0.216533
598.958435	1206.747925	16223.302734	25976.718750	-0.217355
599.299072	1242.905151	15685.463867	25059.228516	-0.217231
599.639587	1267.763306	15280.954102	24934.937500	-0.227609
599.980103	1251.944458	15136.325195	24724.773438	-0.228039
600.320557	1317.479492	14736.335938	24492.011719	-0.237295
600.661072	1238.385498	14232.394531	24589.183594	-0.254559
601.001404	1263.243652	14345.385742	24094.281250	-0.241847
601.341675	1274.542725	14044.829102	24006.148438	-0.250429
601.681946	1312.959839	14022.230469	23737.228516	-0.246598
602.022278	1229.346191	14040.308594	23572.261719	-0.241558
602.362427	1209.007813	14096.804688	23619.718750	-0.240277
602.702576	1179.630005	14381.542969	24019.707031	-0.238061
603.042725	1233.865845	14666.281250	23972.251953	-0.228606
603.382813	1263.243652	15005.254883	24037.787109	-0.219399
603.722839	1218.047119	15610.888672	24564.326172	-0.210071
604.062805	1224.826538	15936.304688	24638.900391	-0.201821
604.402771	1450.809326	16395.048828	25149.621094	-0.200253
604.742737	1265.503418	16704.646484	25111.205078	-0.188787
605.082581	1206.747925	16650.410156	25208.376953	-0.191490
605.422363	1229.346191	16781.480469	25375.603516	-0.191060
605.762146	1179.630005	17030.060547	25174.480469	-0.180077
606.101929	1247.424805	16560.017578	25097.644531	-0.192444
606.441589	1274.542725	16480.921875	24715.734375	-0.187954
606.781189	1256.464111	16092.232422	24302.185547	-0.191280
607.120850	1231.606079	15699.022461	24159.816406	-0.199979
607.460388	1233.865845	15534.054688	23368.876953	-0.189738
607.799927	1247.424805	15043.672852	23457.009766	-0.206779
608.139404	1294.881226	14664.021484	22803.919922	-0.206518
608.478821	1247.424805	14492.274414	23093.177734	-0.217320
608.818298	1190.929199	14697.918945	22408.451172	-0.196136
609.157593	1188.669312	14892.263672	22962.107422	-0.201092
609.496887	1321.999146	15134.065430	22749.685547	-0.190717
609.836182	1265.503418	15120.506836	22889.792969	-0.193335
610.175415	1179.630005	15084.349609	23023.123047	-0.196160
610.514526	1337.817993	15445.921875	22923.691406	-0.184701
610.853699	1315.219727	15280.954102	22774.542969	-0.186552
611.192688	1152.512085	15082.089844	22618.615234	-0.187815
611.531799	1202.228271	14792.832031	22345.175781	-0.191927
611.870850	1272.282959	14745.375000	22388.111328	-0.195141
612.209778	1276.802612	14227.875000	21938.406250	-0.202858
612.548645	1186.409546	14126.182617	21405.087891	-0.193826
612.887573	1231.606079	13608.681641	21188.144531	-0.207467
613.226440	1258.723999	13326.203125	20593.808594	-0.204729
613.565186	1145.732544	13156.716797	20670.642578	-0.211010
613.903931	1190.929199	13088.921875	20049.191406	-0.200028
614.242676	1141.212891	12691.191406	20087.607422	-0.214945
614.581360	1249.684692	12677.632813	20187.041016	-0.219351
614.919983	1274.542725	12494.586914	19868.404297	-0.219375
615.258484	1303.920532	12691.191406	19522.650391	-0.204098
615.597046	1238.385498	12485.547852	19520.390625	-0.210981
615.935547	1143.472778	12401.933594	19443.556641	-0.210974
616.273987	1193.188965	12449.390625	19556.548828	-0.212560
616.612366	1342.337646	12505.885742	19495.533203	-0.211151
616.950806	1290.361572	12334.138672	19192.716797	-0.209793
617.289124	1274.542725	12426.791992	19262.771484	-0.207626
617.627380	1199.968506	12358.997070	19231.132813	-0.208397
617.965515	1195.448853	12650.514648	19172.376953	-0.195718
618.303772	1306.180420	12490.067383	18844.703125	-0.195400
618.641968	1211.267578	12508.145508	18659.396484	-0.188790
618.980042	1213.527466	12325.099609	18747.529297	-0.198106
619.318054	1190.929199	12598.539063	18876.339844	-0.190420
619.656128	1211.267578	12218.887695	18467.310547	-0.195248
619.994080	1197.708618	12361.256836	18691.035156	-0.195070
620.331970	1301.660645	12207.588867	18584.822266	-0.199961
620.669861	1308.440186	12103.636719	18616.458984	-0.205017
621.007751	1204.488159	12044.880859	18067.322266	-0.191886
621.345581	1184.149658	12182.730469	18121.558594	-0.187510
621.683289	1224.826538	11857.315430	18089.919922	-0.200354
622.020996	1276.802612	11968.046875	17823.259766	-0.189677
622.358704	1222.566772	11852.795898	18089.919922	-0.200504
622.696350	1224.826538	12076.518555	17793.882813	-0.183800
623.033875	1281.322266	12083.297852	17726.087891	-0.182525
623.371460	1193.188965	11522.861328	17590.498047	-0.200686
623.708984	1260.983765	11886.693359	17233.445313	-0.177014
624.046448	1331.038452	11891.212891	17362.255859	-0.181295
624.383789	1254.204346	11839.237305	17601.796875	-0.188762
624.721191	1292.621338	11997.424805	17509.144531	-0.180379
625.058533	1251.944458	11823.417969	17251.523438	-0.179973
625.395813	1267.763306	12078.778320	17129.494141	-0.166484
625.733032	1224.826538	12081.038086	17274.123047	-0.169778
626.070190	1260.983765	12372.556641	17355.476563	-0.160902
626.407410	1340.077759	12397.414063	17362.255859	-0.161071
626.744507	1297.140991	12508.145508	17140.792969	-0.150211
627.081543	1276.802612	12496.846680	17581.458984	-0.162317
627.418518	1270.023071	12923.954102	17491.066406	-0.143606
627.755554	1249.684692	12883.277344	17181.468750	-0.136551
628.092529	1299.400879	13055.024414	17387.113281	-0.136249
628.429382	1290.361572	12691.191406	17563.380859	-0.154532
628.766174	1373.975220	12797.403320	17120.453125	-0.139387
629.103027	1249.684692	12982.709961	16939.667969	-0.126212
629.439819	1233.865845	12318.320313	16810.857422	-0.147769
629.776489	1258.723999	12137.534180	16284.317383	-0.140250
630.113159	1193.188965	12123.975586	16349.852539	-0.141952
630.449829	1270.023071	11841.497070	16153.248047	-0.148562
630.786377	1240.645386	11746.583984	15949.863281	-0.146155
631.122925	1344.597412	11977.085938	15850.430664	-0.134908
631.459412	1364.935913	11873.134766	15405.245117	-0.125848
631.795898	1242.905151	11450.546875	15554.393555	-0.146759
632.132324	1220.306885	11174.847656	15244.796875	-0.148866
632.468689	1281.322266	11235.863281	15373.607422	-0.150960
632.804993	1197.708618	11086.713867	14871.925781	-0.140750
633.141296	1213.527466	11070.895508	14914.862305	-0.143002
633.477539	1276.802612	11079.934570	14989.436523	-0.145756
633.813721	1186.409546	10962.423828	14526.171875	-0.134986
634.149841	1215.787231	11188.406250	14865.146484	-0.136303
634.485962	1245.165039	10939.825195	14738.595703	-0.143590
634.822083	1231.606079	11005.360352	14580.408203	-0.135381
635.158020	1247.424805	10991.801758	14546.510742	-0.135068
635.494019	1186.409546	11122.871094	14442.558594	-0.125186
635.829956	1195.448853	10639.268555	14462.896484	-0.147640
636.165894	1211.267578	10519.497070	13805.287109	-0.131297
636.501709	1218.047119	10770.338867	14060.647461	-0.128545
636.837463	1220.306885	10309.333984	13694.555664	-0.137497
637.173279	1290.361572	10508.198242	13506.989258	-0.122322
637.509033	1272.282959	10171.484375	13556.706055	-0.140004
637.844666	1150.252197	10056.232422	13168.015625	-0.130142
638.180237	1265.503418	10112.728516	13213.211914	-0.130478
638.515869	1154.771851	9952.281250	13231.291016	-0.137582
638.851440	1242.905151	9974.878906	12921.694336	-0.126285
639.186890	1170.590698	9780.534180	12747.687500	-0.128599
639.522339	1159.291626	9778.274414	12584.980469	-0.122426
639.857727	1233.865845	9809.912109	12630.176758	-0.123477
640.193176	1376.234985	9588.448242	12573.680664	-0.134659
640.528442	1193.188965	9556.810547	12438.090820	-0.128561
640.863708	1254.204346	9489.016602	12297.981445	-0.127464
641.198914	1276.802612	9448.338867	11812.119141	-0.110344
641.534180	1211.267578	9357.946289	12241.486328	-0.131604
641.869263	1218.047119	9437.040039	11897.992188	-0.113750
642.204346	1238.385498	9272.072266	11685.568359	-0.114084
642.539368	1215.787231	9312.750000	11922.850586	-0.121348
642.874390	1326.518799	9068.688477	11855.055664	-0.133505
643.209412	1168.330933	8989.594727	11712.686523	-0.129743
643.544312	1310.700073	9136.483398	11294.618164	-0.105773
643.879150	1245.165039	9021.231445	11473.144531	-0.119030
644.213989	1227.086426	8869.823242	11351.114258	-0.122104
644.548828	1236.125732	8989.594727	11249.421875	-0.111081
644.883545	1197.708618	9070.948242	11156.768555	-0.102065
645.218262	1220.306885	8718.415039	10962.423828	-0.113702
645.552856	1206.747925	8987.333984	11256.201172	-0.111130
645.887573	1283.582031	9014.452148	11224.563477	-0.109201
646.222107	1227.086426	9086.766602	11154.508789	-0.101432
646.556580	1276.802612	8858.524414	11050.556641	-0.110294
646.891113	1240.645386	8872.083008	11016.659180	-0.107555
647.225586	1206.747925	8833.666016	11055.077148	-0.111013
647.559937	1199.968506	8964.736328	11075.415039	-0.104428
647.894226	1211.267578	8824.626953	10878.810547	-0.103740
648.228577	1315.219727	9066.428711	11138.690430	-0.102895
648.562927	1179.630005	8921.799805	10634.749023	-0.086804
648.897095	1290.361572	8842.705078	10670.906250	-0.094146
649.231262	1222.566772	8894.681641	10587.291992	-0.086580
649.565430	1303.920532	8973.775391	10661.866211	-0.086393
649.899475	1152.512085	8831.406250	10598.591797	-0.089953
650.233521	1270.023071	8625.761719	10704.803711	-0.108106
650.567505	1213.527466	8928.579102	10377.127930	-0.074727
650.901428	1222.566772	8894.681641	10413.285156	-0.078434
651.235413	1229.346191	8817.847656	10241.539063	-0.074674
651.569275	1202.228271	8806.547852	10338.710938	-0.079719
651.903015	1398.833252	8926.319336	10189.562500	-0.067375
652.236816	1181.889893	8835.925781	10250.578125	-0.073654
652.570618	1231.606079	8808.807617	10237.019531	-0.074995
652.904297	1308.440186	8883.382813	9988.438477	-0.059140
653.237915	1145.732544	8639.321289	10114.988281	-0.078067
653.571533	1213.527466	8555.707031	10001.997070	-0.078088
653.905090	1351.376953	8551.187500	10092.389648	-0.084241
654.238586	1242.905151	8463.054688	9782.793945	-0.072906
654.572021	1211.267578	8424.637695	9638.165039	-0.067529
654.905457	1168.330933	8496.952148	9685.621094	-0.065279
655.238892	1247.424805	8492.432617	9502.575195	-0.056686
655.572144	1251.944458	8458.535156	9789.573242	-0.073607
655.905457	1199.968506	8293.567383	9434.780273	-0.064787
656.238708	1220.306885	8395.259766	9425.741211	-0.058283
656.571960	1188.669312	8316.166016	9342.126953	-0.058405
656.905090	1206.747925	8318.425781	9394.103516	-0.061172
657.238159	1197.708618	8463.054688	9439.299805	-0.054755
657.571289	1351.376953	8386.220703	9448.338867	-0.061068
657.904358	1258.723999	8447.235352	9446.079102	-0.056505
658.237305	1222.566772	8463.054688	9296.930664	-0.047340
658.570190	1283.582031	8589.604492	9803.131836	-0.066736
658.903076	1206.747925	8885.642578	9418.961914	-0.029162
659.236023	1247.424805	8860.784180	9737.597656	-0.047340
659.568787	1199.968506	9037.050781	9918.383789	-0.046283
659.901428	1236.125732	9263.033203	9884.486328	-0.032386
660.234192	1195.448853	9470.937500	9796.352539	-0.016750
660.566895	1267.763306	9484.496094	9925.163086	-0.022688
660.899536	1303.920532	9394.103516	9992.958008	-0.031013
661.232056	1260.983765	9452.859375	9796.352539	-0.017839
661.564636	1220.306885	9321.789063	9547.771484	-0.011948
661.897156	1274.542725	8887.902344	9308.229492	-0.023339
662.229553	1249.684692	8698.076172	9276.592773	-0.032486
662.561951	1229.346191	8648.360352	9023.491211	-0.021422
662.894287	1319.739380	8804.288086	8994.114258	-0.010877
663.226685	1229.346191	8316.166016	8741.013672	-0.025285
663.558899	1290.361572	8212.213867	8765.871094	-0.033418
663.891052	1206.747925	7889.058105	8539.888672	-0.040363
664.223328	1242.905151	8115.041016	8424.637695	-0.019137
664.555420	1215.787231	7925.215332	8449.495117	-0.032675
664.887512	1152.512085	7719.571289	8327.464844	-0.038448
665.219543	1195.448853	7889.058105	8302.606445	-0.026036
665.551575	1285.841919	7647.256836	8092.442871	-0.029377
665.883545	1175.110352	7520.706055	8072.104004	-0.036187
666.215454	1150.252197	7486.809082	8101.481934	-0.040208
666.547302	1145.732544	7613.359375	7981.710938	-0.024056
666.879150	1297.140991	7660.815430	8336.503906	-0.043825
667.210938	1227.086426	7626.917969	8004.309570	-0.024883
667.542664	1242.905151	7665.335449	7972.671875	-0.020301
667.874268	1193.188965	7387.376465	7819.003418	-0.029255
668.205994	1233.865845	7604.319824	7866.459961	-0.017513
668.537537	1274.542725	7556.863770	7920.695801	-0.024450
668.869080	1220.306885	7364.778320	7726.350586	-0.024832
669.200562	1238.385498	7450.651855	7828.042969	-0.025613
669.532043	1258.723999	7495.848145	7929.734863	-0.029207
669.863525	1288.101685	7733.129883	7886.798340	-0.010233
670.194824	1242.905151	7495.848145	7710.531738	-0.014660
670.526184	1274.542725	7633.697754	7660.815430	-0.001848
670.857483	1231.606079	7351.219238	7737.649902	-0.026593
671.188660	1242.905151	7484.548828	7593.020996	-0.007483
671.519897	1242.905151	7385.116699	7654.036133	-0.018610
671.851013	1220.306885	7513.926758	7529.745605	-0.001090
672.182129	1288.101685	7400.935547	7473.250000	-0.005108
672.513184	1166.071045	7215.629395	7480.029297	-0.018578
672.844238	1247.424805	7457.431152	7538.785156	-0.005653
673.175171	1301.660645	7351.219238	7414.494629	-0.004519
673.506104	1256.464111	7430.312988	7333.140625	0.006890
673.836975	1222.566772	7296.983398	7278.904785	0.001294
674.167786	1236.125732	7190.771484	7306.022461	-0.008325
674.498596	1242.905151	7231.448242	7125.236328	0.007772
674.829407	1215.787231	6917.332520	6955.749512	-0.002916
675.160034	1292.621338	6885.694824	7303.762695	-0.031306
675.490723	1249.684692	7136.535645	7091.338867	0.003347
675.821289	1172.850586	7050.662109	7066.480957	-0.001167
676.151917	1222.566772	6978.347656	7120.716797	-0.010612
676.482422	1247.424805	6847.277832	6951.229980	-0.007988
676.812927	1238.385498	6930.891113	7113.937500	-0.013745
677.143311	1276.802612	7050.662109	6894.733887	0.011890
677.473694	1218.047119	6906.033203	6958.009277	-0.003950
677.804016	1245.165039	6948.969727	7030.323730	-0.006151
678.134338	1240.645386	6906.033203	6921.852051	-0.001211
678.464539	1258.723999	7034.843262	7152.354492	-0.008747
678.794800	1236.125732	7122.976563	7082.299805	0.003011
679.124878	1301.660645	7238.228027	6930.891113	0.023086
679.455078	1190.929199	7095.858887	7030.323730	0.004847
679.785095	1240.645386	7071.000488	7019.024414	0.003889
680.115173	1186.409546	7254.046875	7023.544434	0.016820
680.445129	1213.527466	7265.345703	7093.599121	0.012503
680.775024	1260.983765	7430.312988	7310.542480	0.008514
681.104919	1199.968506	7389.636230	7168.173340	0.015824
681.434814	1184.149658	7446.131836	7326.361328	0.008387
681.764526	1154.771851	7439.352539	7057.441406	0.027228
682.094360	1206.747925	7522.966309	7141.055176	0.027087
682.424011	1351.376953	7658.555664	7337.660156	0.022678
682.753723	1272.282959	7518.446289	7211.109863	0.021913
683.083313	1265.503418	7452.911621	7242.747559	0.015008
683.412903	1242.905151	7443.872070	7125.236328	0.022910
683.742432	1215.787231	7170.433105	6906.033203	0.019725
684.071899	1251.944458	7012.245117	6815.640137	0.015082
684.401306	1358.156372	7134.275879	7003.205566	0.009968
684.730713	1199.968506	6996.426270	6756.884766	0.018329
685.060059	1265.503418	6899.253906	6609.995605	0.022891
685.389404	1181.889893	6899.253906	6463.106934	0.034462
685.718628	1303.920532	6761.404297	6404.351563	0.029386
686.047852	1267.763306	6741.065918	6347.855957	0.032378
686.376953	1274.542725	6637.113770	6492.484863	0.011874
686.706116	1290.361572	6564.799316	6377.233398	0.015725
687.035156	1263.243652	6569.318848	6544.460938	0.002039
687.364197	1276.802612	6616.775391	6467.626465	0.012303
687.693176	1220.306885	6499.264160	6384.013184	0.009587
688.022156	1265.503418	6695.869141	6420.170410	0.022628
688.351013	1179.630005	6820.159668	6266.501953	0.044869
688.679871	1249.684692	6761.404297	6542.201172	0.017625
689.008606	1204.488159	6806.600586	6530.901855	0.021917
689.337402	1227.086426	6628.074219	6388.532715	0.019702
689.666138	1263.243652	6553.500000	6225.825195	0.027769
689.994751	1279.062378	6539.940918	6060.857422	0.041467
690.323364	1245.165039	6551.240234	5974.984375	0.049929
690.651917	1222.566772	6458.587402	5938.827148	0.045404
690.980469	1434.990479	6390.792480	6164.809570	0.020269
691.308960	1292.621338	6341.076172	5972.724609	0.032903
691.637451	1276.802612	6112.833496	5864.252441	0.022918
691.965759	1270.023071	6101.534668	5848.434082	0.023368
692.294128	1270.023071	5882.331055	5584.034180	0.029037
692.622437	1141.212891	5938.827148	5608.892090	0.030943
692.950684	1315.219727	5943.346680	5611.151855	0.032348
693.278870	1215.787231	5850.693848	5599.853027	0.024164
693.607117	1227.086426	5963.685059	5430.365723	0.051878
693.935120	1188.669312	5760.300781	5568.215332	0.018642
694.263245	1270.023071	5812.276855	5484.601563	0.032517
694.591248	1274.542725	5794.198242	5482.341797	0.031050
694.919250	1274.542725	5904.929688	5443.924805	0.045546
695.247192	1231.606079	5719.623535	5335.453125	0.038863
695.575073	1387.534180	5701.544922	5489.121094	0.021929
695.902893	1283.582031	5814.536621	5378.389648	0.043956
696.230774	1193.188965	5728.663086	5382.909180	0.034438
696.558411	1238.385498	5769.339844	5471.042480	0.029577
696.886169	1279.062378	5735.442383	5421.326660	0.031744
697.213806	1258.723999	6042.778809	5518.499023	0.050409
697.541443	1218.047119	5984.023438	5572.734863	0.039195
697.869019	1181.889893	5925.268066	5719.623535	0.019249
698.196533	1220.306885	6110.573730	5721.883301	0.035968
698.524048	1229.346191	6347.855957	5950.125977	0.035130
698.851501	1285.841919	6609.995605	5959.165527	0.056625
699.178772	1213.527466	6695.869141	6219.045410	0.039517
699.506226	1249.684692	6887.954590	6318.478027	0.046241
699.833435	1299.400879	6991.906738	6528.642090	0.036865
700.160767	1260.983765	7019.024414	6261.982422	0.061218
700.487915	1242.905151	6824.679199	6187.408203	0.052650
700.815063	1188.669312	6623.554688	6121.873047	0.042061
701.142151	1172.850586	6598.696777	6031.479980	0.047954
701.469238	1276.802612	6501.523926	5979.503906	0.045716
701.796265	1249.684692	6406.611328	5701.544922	0.063849
702.123230	1218.047119	6216.785645	5746.741699	0.042887
702.450134	1288.101685	6072.156738	5638.270020	0.041290
702.777039	1351.376953	5972.724609	5534.317871	0.043287
703.103882	1281.322266	5785.158691	5337.712891	0.045443
703.430664	1256.464111	5620.191406	5220.201660	0.041753
703.757385	1202.228271	5565.955566	5156.926758	0.042744
704.084106	1136.693237	5482.341797	4915.125000	0.060743
704.410767	1222.566772	5328.673340	4872.188477	0.051182
704.737366	1272.282959	5333.193359	4784.055176	0.063097
705.063904	1358.156372	5319.634277	5055.234375	0.029999
705.390442	1220.306885	5086.872070	4836.031250	0.029130
705.716919	1220.306885	5141.107910	4777.275391	0.042295
706.043396	1177.370239	5034.895996	4845.070313	0.021915
706.369690	1263.243652	5019.077148	4718.520020	0.036224
706.696106	1333.298340	5147.887207	4797.614258	0.041830
707.022278	1351.376953	5170.485352	4709.480957	0.055868
707.348633	1206.747925	5034.895996	4603.269043	0.051954
707.674805	1224.826538	5007.777832	4689.142090	0.038213
708.000916	1265.503418	5109.470215	4720.779785	0.046297
708.327026	1220.306885	5116.249512	4802.133789	0.036508
708.653076	1209.007813	5123.029297	4659.764648	0.054709
708.979065	1172.850586	5046.194824	4616.827637	0.051026
709.305054	1251.944458	4897.046387	4610.048340	0.035616
709.630920	1240.645386	5127.548828	4765.976563	0.042404
709.956787	1181.889893	5032.636230	4634.906250	0.047346
710.282593	1213.527466	5220.201660	4729.819336	0.056699
710.608459	1227.086426	5204.382813	4646.205566	0.065674
710.934082	1190.929199	5125.289063	4734.338867	0.045453
711.259827	1224.826538	5206.642578	4833.771484	0.042701
711.585449	1204.488159	5127.548828	4763.716797	0.042269
711.911072	1222.566772	5319.634277	4854.109863	0.052382
712.236572	1181.889893	5272.177734	4921.904785	0.038881
712.562073	1233.865845	5448.444336	4955.801758	0.053985
712.887512	1199.968506	5287.996582	4856.369629	0.048460
713.213013	1245.165039	5278.957520	4804.393555	0.054358
713.538330	1240.645386	5382.909180	4840.550781	0.060947
713.863647	1159.291626	5202.123047	4727.559570	0.054228
714.188904	1245.165039	5222.461426	4662.024414	0.065961
714.514099	1263.243652	5224.721680	4664.284180	0.066245
714.839294	1254.204346	5010.037598	4623.607422	0.047153
715.164490	1281.322266	5217.941895	4725.299316	0.058063
715.489502	1294.881226	5091.391602	4544.513184	0.067550
715.814575	1220.306885	5007.777832	4689.142090	0.038166
716.139526	1321.999146	5222.461426	4610.048340	0.074178
716.464539	1157.031738	5111.729980	4646.205566	0.054391
716.789368	1258.723999	5048.455078	4558.072266	0.060180
717.114258	1272.282959	4953.541992	4544.513184	0.051153
717.439026	1190.929199	4960.321777	4467.679199	0.060828
717.763794	1188.669312	4924.164551	4413.443359	0.063849
718.088440	1195.448853	4856.369629	4323.050293	0.068379
718.413208	1175.110352	4743.377930	4334.349121	0.052875
718.737793	1215.787231	4723.039551	4384.065430	0.044144
719.062378	1292.621338	4867.668457	4370.506836	0.065029
719.386841	1218.047119	4621.347656	4171.641602	0.061549
719.711304	1218.047119	4469.938965	4083.508545	0.054942
720.035767	1224.826538	4463.159668	4146.783691	0.044648
720.360168	1256.464111	4612.308105	4191.979980	0.058117
720.684570	1265.503418	4449.600586	4094.807617	0.051307
721.008789	1383.014526	4469.938965	3965.997559	0.077404
721.333069	1358.156372	4512.875977	3999.894775	0.077071
721.657227	1283.582031	4320.790527	3891.423096	0.066193
721.981445	1254.204346	4341.128906	3895.942871	0.067636
722.305481	1292.621338	4230.397461	3902.722168	0.051361
722.629578	1247.424805	4289.152832	3956.958252	0.050226
722.953552	1251.944458	4275.593750	3900.462402	0.057528
723.277588	1272.282959	4262.034668	3819.108643	0.069636
723.601440	1215.787231	4241.696289	3814.589111	0.066083
723.925354	1251.944458	4169.381836	3721.936035	0.072306
724.249146	1297.140991	4225.877441	3920.801025	0.047773
724.572937	1211.267578	4164.862305	3798.770264	0.057470
724.896667	1276.802612	4277.853516	3902.722168	0.057992
725.220398	1251.944458	4187.460449	3703.857422	0.078179
725.543945	1238.385498	4158.083008	3753.573730	0.064767
725.867615	1220.306885	4162.602539	3864.305176	0.046425
726.191101	1215.787231	4273.333984	3839.447021	0.066466
726.514648	1319.739380	4212.318848	3882.383789	0.052597
726.838074	1306.180420	4248.476074	3943.399170	0.047540
727.161499	1263.243652	4307.231445	3837.187256	0.072844
727.484863	1188.669312	4332.089355	3832.667725	0.075141
727.808228	1285.841919	4352.428223	4017.973389	0.050154
728.131470	1240.645386	4408.923828	3877.864258	0.079677
728.454712	1312.959839	4413.443359	4015.713623	0.059623
728.777832	1152.512085	4440.561035	3927.580322	0.073665
729.101013	1195.448853	4465.419434	4002.154785	0.066347
729.424011	1290.361572	4488.017578	4063.170166	0.061912
729.747070	1231.606079	4510.615723	4008.934082	0.072116
730.070068	1292.621338	4510.615723	4038.312012	0.068934
730.393005	1220.306885	4476.718262	4047.351318	0.061407
730.715881	1263.243652	4467.679199	3932.100098	0.079426
731.038757	1170.590698	4463.159668	3956.958252	0.072496
731.361572	1240.645386	4356.947754	3963.737549	0.058577
731.684326	1186.409546	4420.222656	3968.257324	0.065382
732.007019	1319.739380	4465.419434	4013.453857	0.067363
732.329712	1190.929199	4481.238281	4072.209473	0.057651
732.652283	1204.488159	4460.899902	4022.493164	0.062798
732.974854	1190.929199	4558.072266	4060.910156	0.069383
733.297363	1274.542725	4639.426270	4049.611084	0.083696
733.619873	1245.165039	4524.174805	3947.918945	0.083936
733.942261	1204.488159	4275.593750	3920.801025	0.053315
734.264648	1283.582031	4402.144043	3970.517090	0.064697
734.586975	1249.684692	4361.467285	3904.982178	0.068896
734.909302	1123.134277	4291.412598	3843.966797	0.066122
735.231506	1181.889893	4304.971680	3771.652344	0.081323
735.553711	1211.267578	4248.476074	3807.809570	0.068079
735.875854	1272.282959	4347.908203	3936.619629	0.062344
736.197937	1224.826538	4115.145996	3613.464355	0.082796
736.519958	1168.330933	4146.783691	3523.071289	0.102048
736.841980	1242.905151	4051.870850	3597.645508	0.076603
737.163940	1197.708618	3943.399170	3599.905273	0.058043
737.485840	1301.660645	4099.327148	3611.204590	0.083270
737.807678	1256.464111	4002.154785	3570.527588	0.074276
738.129517	1184.149658	3868.824951	3504.992676	0.063246
738.451233	1321.999146	3914.021484	3595.385742	0.056965
738.773010	1242.905151	4060.910156	3504.992676	0.095432
739.094666	1211.267578	4033.792236	3613.464355	0.070029
739.416260	1353.636719	4160.342773	3699.337891	0.077924
739.737854	1204.488159	4002.154785	3620.243896	0.063743
740.059448	1231.606079	4040.571777	3566.008057	0.080371
740.380859	1218.047119	4110.626465	3640.582275	0.077015
740.702332	1138.953125	3959.218018	3547.929443	0.068457
741.023682	1222.566772	3900.462402	3471.095215	0.075895
741.345032	1227.086426	3961.477783	3462.055908	0.087589
741.666321	1297.140991	4029.272705	3500.472900	0.093422
741.987549	1213.527466	3909.501709	3396.520996	0.091663
742.308777	1274.542725	3959.218018	3466.575439	0.088045
742.629944	1213.527466	3846.226563	3443.977295	0.072009
742.950989	1328.778687	3859.785645	3410.079834	0.084958
743.272095	1229.346191	3665.440430	3245.112549	0.082254
743.593140	1290.361572	3740.014648	3434.937988	0.057763
743.914063	1218.047119	3620.243896	3344.544922	0.052944
744.234985	1209.007813	3672.219971	3303.867920	0.070347
744.555847	1279.062378	3715.156494	3240.592773	0.094099
744.876648	1270.023071	3608.944580	3242.852539	0.073926
745.197449	1229.346191	3495.953369	3236.073242	0.052888
745.518188	1283.582031	3624.763428	3279.009766	0.069399
745.838867	1281.322266	3624.763428	3181.837402	0.090983
746.159485	1335.558105	3486.914063	3217.994629	0.057992
746.480042	1218.047119	3491.433594	3095.963867	0.082997
746.800537	1260.983765	3355.843994	3037.208252	0.071657
747.121094	1303.920532	3462.055908	3145.679932	0.068846
747.441528	1238.385498	3547.929443	3240.592773	0.062017
747.761902	1267.763306	3439.457520	3161.498779	0.059479
748.082275	1204.488159	3450.756836	3147.939941	0.062888
748.402588	1369.455566	3559.228516	3141.160400	0.092008
748.722839	1342.337646	3538.890137	3120.822021	0.091692
749.043030	1238.385498	3464.315674	3114.042480	0.074358
749.363159	1231.606079	3543.409668	3025.909180	0.110055
749.683289	1285.841919	3547.929443	3111.782715	0.093023
750.003357	1163.811279	3568.267822	3156.979248	0.081473
750.323303	1204.488159	3437.197754	3120.822021	0.066361
750.643311	1218.047119	3502.732910	3204.435547	0.060762
750.963257	1398.833252	3606.684814	3292.568848	0.066651
751.283142	1281.322266	3536.630127	3154.719238	0.080576
751.602905	1213.527466	3430.418213	3030.428711	0.086413
751.922729	1355.896606	3629.283203	3152.459473	0.102231
752.242432	1251.944458	3439.457520	3159.239014	0.059533
752.562134	1229.346191	3373.922607	3016.869873	0.079090
752.881714	1254.204346	3242.852539	3003.310791	0.055742
753.201355	1299.400879	3360.363770	2987.492188	0.086674
753.520874	1215.787231	3283.529541	2987.492188	0.067105
753.840393	1258.723999	3468.835449	3039.468262	0.093813
754.159851	1283.582031	3394.260986	3032.688721	0.081606
754.479248	1276.802612	3398.780762	2933.256348	0.107562
754.798523	1294.881226	3326.466309	2992.011719	0.078120
755.117859	1254.204346	3206.695313	3023.649414	0.042752
755.437134	1229.346191	3251.891846	2888.059570	0.086127
755.756348	1301.660645	3373.922607	3034.948486	0.077574
756.075500	1260.983765	3265.450928	3030.428711	0.054162
756.394653	1247.424805	3299.348389	2885.799805	0.097748
756.713623	1270.023071	3233.813232	2985.232178	0.058778
757.032654	1260.983765	3389.741455	3041.728027	0.077525
757.351624	1272.282959	3346.804688	2917.437500	0.100711
757.670532	1242.905151	3421.378906	2980.712646	0.098151
757.989441	1181.889893	3328.726074	2847.382813	0.110256
758.308289	1229.346191	3342.285156	3012.350098	0.073735
758.627014	1240.645386	3346.804688	2971.673340	0.085187
758.945801	1227.086426	3340.025146	3077.885254	0.057528
759.264404	1263.243652	3405.560303	2976.192871	0.097139
759.583130	1312.959839	3464.315674	3116.302246	0.076634
759.901611	1310.700073	3367.143066	2996.531494	0.086302
760.220215	1260.983765	3434.937988	3123.081787	0.067248
760.538635	1360.416260	3416.859375	3098.223633	0.073115
760.857117	1231.606079	3349.064453	2892.579346	0.105452
761.175537	1340.077759	3468.835449	3089.184326	0.085310
761.493896	1306.180420	3330.985840	2949.074951	0.090774
761.812134	1236.125732	3335.505615	2935.516113	0.091798
762.130432	1360.416260	3527.590820	3145.679932	0.084192
762.448608	1265.503418	3484.654297	3053.027100	0.093935
762.766785	1373.975220	3480.134521	3057.546875	0.097260
763.084900	1324.259033	3448.496826	3258.671387	0.040654
763.402954	1231.606079	3611.204590	3172.797852	0.088435
763.720947	1116.354858	3762.613037	3281.269775	0.087191
764.038940	1240.645386	3959.218018	3459.796143	0.088154
764.356750	1312.959839	4160.342773	3710.636963	0.074655
764.674683	1238.385498	4182.940918	3638.322510	0.088820
764.992493	1224.826538	4162.602539	3685.778809	0.076915
765.310303	1283.582031	4314.010742	3683.519043	0.101304
765.627930	1249.684692	4320.790527	3541.149902	0.127182
765.945679	1337.817993	4343.388672	3638.322510	0.116104
766.263306	1294.881226	4042.831543	3545.669434	0.086674
766.580872	1247.424805	3814.589111	3373.922607	0.081789
766.898376	1321.999146	3726.455811	3310.647461	0.082459
767.215881	1172.850586	3692.558350	3145.679932	0.106261
767.533325	1288.101685	3608.944580	3193.136475	0.085743
767.850708	1251.944458	3362.623535	3028.168945	0.074924
768.168030	1263.243652	3337.765381	2985.232178	0.080888
768.485352	1310.700073	3227.033936	2940.035645	0.070461
768.802551	1260.983765	3222.514160	2822.524658	0.099042
769.119751	1245.165039	3220.254395	2772.808594	0.111565
769.436890	1265.503418	3184.097168	2799.926514	0.097038
769.753967	1193.188965	3190.876709	2777.328125	0.100734
770.071045	1254.204346	3095.963867	2761.509277	0.087032
770.388062	1276.802612	3107.262939	2768.288818	0.088941
770.704956	1233.865845	2928.736572	2558.124756	0.107164
771.021912	1294.881226	3048.507568	2673.375977	0.104532
771.338684	1222.566772	2955.854492	2657.557373	0.082022
771.655579	1236.125732	2982.972412	2558.124756	0.121024
771.972351	1301.660645	3150.199707	2716.312744	0.116179
772.289063	1190.929199	2937.775879	2564.904297	0.104276
772.605713	1258.723999	3012.350098	2646.258057	0.101693
772.922302	1188.669312	2847.382813	2603.321289	0.069122
773.238831	1245.165039	2978.452881	2641.738525	0.093807
773.555420	1378.494873	3086.924561	2673.375977	0.120367
773.871826	1267.763306	2949.074951	2628.179443	0.091976
774.188293	1279.062378	2921.957031	2750.210205	0.047953
774.504639	1301.660645	2881.280273	2594.281982	0.087081
774.820984	1227.086426	2851.902344	2729.871826	0.033907
775.137207	1292.621338	2863.201660	2607.841064	0.077062
775.453552	1170.590698	2779.587891	2497.109619	0.083842
775.769592	1317.479492	2813.485352	2551.345459	0.083665
776.085815	1220.306885	2818.005127	2449.653076	0.113821
776.401855	1202.228271	2838.343506	2494.849609	0.102343
776.717896	1238.385498	2824.784424	2524.227539	0.091225
777.033875	1285.841919	2793.146973	2404.456543	0.129521
777.349854	1233.865845	2840.603271	2395.417236	0.140906
777.665710	1229.346191	2756.989746	2431.574463	0.104035
777.981567	1281.322266	2876.760498	2510.668457	0.113206
778.297363	1166.071045	2829.304199	2447.393311	0.113295
778.613098	1199.968506	2784.107666	2472.251465	0.095210
778.928772	1218.047119	2664.336670	2438.354004	0.073786
779.244385	1315.219727	2775.068359	2512.928223	0.085957
779.559998	1267.763306	2799.926514	2517.447998	0.088505
779.875488	1175.110352	2695.974365	2332.142090	0.118745
780.191040	1288.101685	2790.887207	2560.384766	0.072313
780.506470	1163.811279	2707.273438	2395.417236	0.098024
780.821899	1238.385498	2756.989746	2531.006836	0.069973
781.137207	1136.693237	2808.965820	2431.574463	0.111077
781.452576	1190.929199	2662.076904	2436.094238	0.072429
781.767822	1258.723999	2865.461426	2463.212158	0.125142
782.083069	1233.865845	2718.572510	2411.236084	0.100728
782.398193	1195.448853	2655.297363	2438.354004	0.069870
782.713379	1276.802612	2691.454590	2384.118164	0.106378
783.028381	1392.053833	2693.714600	2503.888916	0.068457
783.343384	1229.346191	2603.321289	2359.260010	0.084934
783.658386	1256.464111	2628.179443	2259.827637	0.135806
783.973328	1238.385498	2666.596680	2302.764404	0.127696
784.288086	1355.896606	2745.690430	2436.094238	0.109447
784.602966	1308.440186	2560.384766	2198.812256	0.148014
784.917725	1297.140991	2695.974365	2384.118164	0.109546
785.232483	1233.865845	2476.770996	2282.425781	0.073845
785.547119	1333.298340	2585.242676	2442.873535	0.052428
785.861755	1288.101685	2544.565918	2393.157471	0.055766
786.176270	1238.385498	2594.281982	2316.323242	0.099633
786.490845	1218.047119	2546.825684	2352.480469	0.068674
786.805298	1145.732544	2497.109619	2361.519775	0.045919
787.119751	1240.645386	2594.281982	2266.607178	0.120371
787.434143	1157.031738	2533.266846	2316.323242	0.074500
787.748474	1138.953125	2558.124756	2286.945557	0.092096
788.062744	1290.361572	2562.644531	2305.024170	0.098262
788.377014	1188.669312	2553.605225	2366.039551	0.064199
788.691162	1211.267578	2689.194824	2343.441162	0.115740
789.005310	1229.346191	2691.454590	2497.109619	0.061941
789.319397	1186.409546	2619.140137	2293.725098	0.111893
789.633423	1195.448853	2607.841064	2377.338623	0.077378
789.947449	1294.881226	2662.076904	2524.227539	0.046156
790.261414	1229.346191	2677.895752	2440.613770	0.077693
790.575256	1118.614624	2732.131592	2399.937012	0.100115
790.889160	1267.763306	2653.037598	2361.519775	0.102615
791.202881	1175.110352	2562.644531	2329.882324	0.079747
791.516663	1276.802612	2472.251465	2350.220703	0.046762
791.830322	1211.267578	2494.849609	2307.283936	0.068607
792.144043	1247.424805	2442.873535	2271.126709	0.067357
792.457581	1211.267578	2533.266846	2273.386475	0.095058
792.771118	1233.865845	2551.345459	2253.048096	0.111492
793.084656	1326.518799	2521.967529	2334.401855	0.074121
793.398071	1292.621338	2431.574463	2192.032715	0.102547
793.711487	1222.566772	2433.834229	2119.718262	0.130374
794.024841	1251.944458	2370.559082	2144.576416	0.098008
794.338135	1328.778687	2370.559082	2185.253418	0.085062
794.651428	1175.110352	2375.078857	2219.150635	0.060453
794.964600	1279.062378	2497.109619	2182.993408	0.129529
795.277771	1233.865845	2325.362549	2151.355957	0.075421
795.590881	1324.259033	2399.937012	2228.189941	0.075547
795.903931	1331.038452	2472.251465	2241.749023	0.097986
796.216980	1211.267578	2447.393311	2173.954102	0.108578
796.529907	1303.920532	2558.124756	2343.441162	0.081535
796.842834	1215.787231	2449.653076	2241.749023	0.080137
797.155701	1342.337646	2515.188232	2284.685791	0.095031
797.468506	1265.503418	2655.297363	2185.253418	0.179281
797.781250	1283.582031	2515.188232	2307.283936	0.080298
798.093994	1186.409546	2528.747070	2250.788330	0.100766
798.406677	1279.062378	2442.873535	2275.646484	0.067369
798.719238	1204.488159	2384.118164	2176.214111	0.084202
799.031921	1204.488159	2508.408691	2205.591797	0.114772
799.344360	1290.361572	2467.731689	2237.229248	0.094624
799.656860	1170.590698	2357.000244	2182.993408	0.068881
799.969299	1193.188965	2408.976318	2079.041504	0.137496
800.281677	1193.188965	2329.882324	2112.938721	0.091974
800.593933	1166.071045	2314.063477	2124.238037	0.078498
800.906250	1204.488159	2185.253418	2074.521729	0.052029
801.218445	1209.007813	2284.685791	2020.285889	0.122513
801.530640	1195.448853	2341.181396	2112.938721	0.096482
801.842712	1231.606079	2357.000244	2144.576416	0.090848
802.154846	1292.621338	2363.779785	2133.277344	0.105235
802.466797	1274.542725	2302.764404	2106.159424	0.092164
802.778870	1276.802612	2207.851563	2018.026001	0.099023
803.090759	1283.582031	2332.142090	2097.120117	0.110215
803.402649	1202.228271	2248.528564	2036.104736	0.098555
803.714478	1184.149658	2160.395264	2079.041504	0.037789
804.026245	1306.180420	2221.410645	2103.899414	0.059680
804.337952	1294.881226	2232.709717	2088.080811	0.072741
804.649658	1301.660645	2275.646484	2040.624390	0.119929
804.961243	1240.645386	2284.685791	2090.340576	0.089454
805.272888	1240.645386	2305.024170	2124.238037	0.080844
805.584412	1270.023071	2239.489258	2018.026001	0.112629
805.895874	1175.110352	2164.914795	2047.403809	0.054887
806.207336	1258.723999	2244.008789	1988.648315	0.130284
806.518677	1260.983765	2246.268555	1988.648315	0.131631
806.830017	1125.394165	2298.244629	1938.932129	0.158865
807.141357	1168.330933	2293.725098	2054.183350	0.103943
807.452576	1224.826538	2363.779785	2065.482422	0.131888
807.763733	1224.826538	2289.205322	2081.301270	0.094382
808.074890	1263.243652	2345.701172	2090.340576	0.116854
808.385925	1364.935913	2300.504395	2178.473877	0.060698
808.697021	1197.708618	2282.425781	1999.947388	0.131013
809.007935	1299.400879	2323.102783	2112.938721	0.099796
809.318909	1326.518799	2239.489258	2070.002197	0.089185
809.629822	1272.282959	2223.670410	2074.521729	0.074054
809.940674	1188.669312	2115.198730	1905.034668	0.111725
810.251404	1258.723999	2106.159424	1988.648315	0.064829
810.562195	1321.999146	2273.386475	2097.120117	0.088988
810.872864	1265.503418	2049.663574	1927.632935	0.073462
811.183533	1242.905151	2108.419189	1932.152588	0.098899
811.494080	1224.826538	2151.355957	1961.530396	0.099566
811.804626	1245.165039	2173.954102	1936.672241	0.128120
812.115112	1274.542725	2101.639648	1848.538940	0.158647
812.425598	1209.007813	2083.561035	1902.774902	0.100573
812.735962	1199.968506	2097.120117	1796.562988	0.177187
813.046326	1256.464111	2187.513184	1877.916748	0.175565
813.356628	1367.195679	2239.489258	2031.585083	0.118240
813.666870	1360.416260	2119.718262	2027.065430	0.056517
813.976990	1254.204346	2047.403809	1877.916748	0.104398
814.287170	1159.291626	2072.261963	1825.940674	0.136559
814.597290	1288.101685	2036.104736	1941.191895	0.058930
814.907349	1220.306885	2031.585083	1882.436401	0.088227
815.217346	1403.352905	2198.812256	2076.781494	0.072326
815.527283	1272.282959	2108.419189	1947.971436	0.092531
815.837158	1213.527466	1986.388428	1839.499634	0.091546
816.147034	1249.684692	2205.591797	1905.034668	0.163942
816.456787	1333.298340	2074.521729	1905.034668	0.112753
816.766541	1263.243652	2065.482422	1936.672241	0.076012
817.076233	1238.385498	2072.261963	1972.829468	0.055143
817.385925	1301.660645	2121.978027	1936.672241	0.111200
817.695496	1392.053833	2305.024170	2101.639648	0.109452
818.005066	1346.857300	2128.757568	1954.750854	0.109324
818.314514	1351.376953	2137.796875	1952.491089	0.116698
818.623962	1251.944458	2038.364502	1925.373169	0.067363
818.933350	1274.542725	2054.183350	1882.436401	0.108067
819.242737	1342.337646	2151.355957	2022.545654	0.075317
819.552002	1184.149658	2180.733643	2033.844849	0.069251
819.861328	1224.826538	2262.087402	2079.041504	0.084321
820.170471	1147.992432	2248.528564	1941.191895	0.142222
820.479675	1224.826538	2282.425781	2051.923584	0.106765
820.788696	1263.243652	2325.362549	2119.718262	0.093459
821.097839	1276.802612	2413.495850	2142.316650	0.118369
821.406738	1326.518799	2474.511230	2357.000244	0.046899
821.715698	1220.306885	2630.439453	2284.685791	0.122164
822.024597	1233.865845	2858.681885	2467.731689	0.119536
822.333435	1306.180420	3360.363770	2982.972412	0.088160
822.642273	1231.606079	4126.445313	3656.401123	0.076949
822.950989	1251.944458	5220.201660	4361.467285	0.105906
823.259705	1236.125732	5855.213379	4987.439453	0.090373
823.568359	1333.298340	6497.004395	5538.837402	0.089140
823.876953	1326.518799	6955.749512	5796.458008	0.100147
824.185486	1283.582031	6978.347656	5800.977539	0.100588
824.494019	1240.645386	6971.568359	5730.922852	0.105951
824.802429	1247.424805	6234.864258	5351.271973	0.084686
825.110840	1297.140991	5678.946777	4759.196777	0.102319
825.419189	1199.968506	5113.989746	4413.443359	0.085648
825.727478	1206.747925	4747.897949	4067.689697	0.092635
826.035767	1138.953125	4551.292969	3688.038574	0.126668
826.343933	1258.723999	4277.853516	3726.455811	0.087584
826.652100	1186.409546	3920.801025	3364.883301	0.098708
826.960144	1186.409546	3764.872803	3233.813232	0.100157
827.268250	1172.850586	3703.857422	3163.758545	0.104242
827.576233	1335.558105	3753.573730	3380.702148	0.072735
827.884155	1331.038452	3864.305176	3294.828613	0.110586
828.192017	1254.204346	3900.462402	3330.985840	0.105241
828.499878	1256.464111	3848.486328	3340.025146	0.094832
828.807678	1265.503418	3855.265869	3387.481689	0.086519
829.115479	1267.763306	3819.108643	3410.079834	0.075886
829.423096	1258.723999	3681.259277	3211.215088	0.093681
829.730835	1197.708618	3385.221680	2928.736572	0.101647
830.038330	1236.125732	3206.695313	2716.312744	0.124275
830.345947	1274.542725	2973.933105	2693.714600	0.078258
830.653442	1211.267578	2811.225586	2503.888916	0.092637
830.960876	1193.188965	2673.375977	2336.661865	0.112091
831.268250	1184.149658	2610.100830	2336.661865	0.092459
831.575623	1315.219727	2429.314697	2284.685791	0.060390
831.882874	1236.125732	2431.574463	2171.694336	0.106455
832.190125	1166.071045	2316.323242	2140.056641	0.072241
832.497314	1358.156372	2295.984863	2124.238037	0.087848
832.804504	1358.156372	2325.362549	2099.379883	0.115570
833.111572	1285.841919	2121.978027	1959.270508	0.093985
833.418640	1256.464111	2221.410645	1975.089355	0.128001
833.725586	1276.802612	2223.670410	2126.497803	0.047026
834.032532	1138.953125	2354.740479	2207.851563	0.055921
834.339417	1281.322266	2596.541992	2289.205322	0.115588
834.646301	1303.920532	2664.336670	2447.393311	0.075446
834.953003	1297.140991	2766.029053	2506.148926	0.084560
835.259827	1267.763306	2921.957031	2506.148926	0.125730
835.566467	1312.959839	2982.972412	2585.242676	0.118136
835.873108	1195.448853	2885.799805	2558.124756	0.093584
836.179688	1213.527466	2741.170898	2415.755615	0.104035
836.486267	1215.787231	2549.085449	2413.495850	0.046576
836.792664	1227.086426	2492.589844	2318.583252	0.064241
837.099121	1254.204346	2454.172852	2173.954102	0.115500
837.405518	1342.337646	2436.094238	2164.914795	0.123744
837.711792	1245.165039	2323.102783	2042.884155	0.130744
838.018127	1206.747925	2214.631104	2042.884155	0.081133
838.324341	1211.267578	2196.552490	1966.050049	0.115740
838.630554	1202.228271	2097.120117	1918.593628	0.096636
838.936646	1199.968506	2101.639648	1898.255249	0.111014
839.242737	1204.488159	2051.923584	1918.593628	0.074344
839.548767	1236.125732	2027.065430	1873.397095	0.093819
839.854797	1249.684692	2013.506348	1853.058594	0.102405
840.160645	1294.881226	1950.231201	1828.200562	0.089486
840.466553	1184.149658	1925.373169	1789.783447	0.087739
840.772400	1157.031738	1895.995361	1814.641602	0.050655
841.078186	1245.165039	2011.246582	1866.617554	0.090867
841.383850	1260.983765	1997.687622	1857.578247	0.091614
841.689575	1229.346191	2022.545654	1828.200562	0.122061
841.995178	1274.542725	2103.899414	1875.656860	0.139784
842.300781	1245.165039	1873.397095	1855.318481	0.012681
842.606262	1220.306885	1902.774902	1787.523682	0.080333
842.911743	1326.518799	1941.191895	1837.239868	0.080460
843.217163	1294.881226	1898.255249	1776.224487	0.098132
843.522583	1265.503418	1850.798828	1670.012573	0.160447
843.827881	1319.739380	1773.964722	1697.130493	0.080480
844.133179	1308.440186	1785.263794	1735.547607	0.047821
844.438354	1267.763306	1785.263794	1690.351074	0.087994
844.743530	1218.047119	1744.586914	1638.375000	0.097843
845.048645	1312.959839	1776.224487	1663.233154	0.121422
845.353760	1310.700073	1724.248413	1613.516968	0.135346
845.658752	1351.376953	1796.562988	1735.547607	0.064017
845.963745	1360.416260	1771.704834	1740.067261	0.034762
846.268555	1213.527466	1615.776733	1606.737427	0.009871
846.573486	1290.361572	1674.532227	1584.139160	0.116506
846.878296	1346.857300	1740.067261	1692.610840	0.055858
847.183044	1272.282959	1665.492920	1514.084473	0.211166
847.487732	1279.062378	1647.414307	1486.966553	0.248400
847.792419	1181.889893	1674.532227	1590.918701	0.080778
848.097046	1242.905151	1590.918701	1500.525513	0.130616
848.401611	1263.243652	1672.272461	1547.981934	0.157308
848.706055	1279.062378	1602.217773	1502.785400	0.159701
849.010559	1218.047119	1575.099854	1498.265747	0.105235
849.314941	1306.180420	1685.831421	1620.296387	0.082295
849.619324	1240.645386	1586.398926	1484.706787	0.151268
849.923584	1168.330933	1577.359619	1466.628174	0.137105
850.227844	1229.346191	1557.021240	1480.187134	0.116045
850.532043	1170.590698	1543.462280	1477.927246	0.083945
850.836243	1193.188965	1525.383667	1480.187134	0.063514
851.140320	1195.448853	1545.722046	1457.588867	0.125874
851.444397	1222.566772	1665.492920	1489.226440	0.220374
851.748352	1283.582031	1584.139160	1586.398926	-0.003253
852.052307	1306.180420	1642.894653	1638.375000	0.005869
852.356140	1231.606079	1552.501587	1523.123779	0.041699
852.660095	1283.582031	1590.918701	1523.123779	0.108233
852.963806	1247.424805	1627.075928	1629.335693	-0.002577
853.267578	1502.785400	1825.940674	1708.429688	0.196295
853.571228	1276.802612	1579.619507	1572.839966	0.009834
853.874939	1283.582031	1647.414307	1518.604126	0.189793
854.178467	1315.219727	1579.619507	1532.163086	0.085915
854.482056	1265.503418	1602.217773	1496.005859	0.164586
854.785461	1319.739380	1608.997314	1584.139160	0.039024
855.088989	1213.527466	1631.595581	1507.305054	0.153228
855.392273	1251.944458	1618.036621	1550.241699	0.088941
855.695679	1254.204346	1613.516968	1527.643433	0.118612
855.998901	1392.053833	1717.468994	1658.713501	0.086480
856.302185	1179.630005	1538.942627	1502.785400	0.046061
856.605286	1328.778687	1606.737427	1620.296387	-0.020685
856.908508	1213.527466	1532.163086	1500.525513	0.045415
857.211548	1279.062378	1534.422974	1514.084473	0.036045
857.514587	1231.606079	1486.966553	1432.730713	0.103688
857.817566	1166.071045	1523.123779	1473.407593	0.065118
858.120483	1218.047119	1572.839966	1500.525513	0.098990
858.423340	1333.298340	1507.305054	1568.320313	-0.130542
858.726196	1270.023071	1561.540894	1527.643433	0.053685
859.028931	1358.156372	1636.115234	1507.305054	0.270361
859.331665	1195.448853	1489.226440	1459.848633	0.045758
859.634277	1229.346191	1588.658813	1491.486206	0.136939
859.936890	1120.874512	1599.958008	1563.800659	0.034080
860.239441	1233.865845	1509.564819	1473.407593	0.061054
860.541992	1283.582031	1645.154541	1489.226440	0.245078
860.844421	1229.346191	1532.163086	1529.903320	0.003253
861.146912	1193.188965	1493.746094	1459.848633	0.051970
861.449219	1152.512085	1482.446899	1385.274292	0.151516
861.751526	1306.180420	1584.139160	1486.966553	0.186815
862.053772	1344.597412	1627.075928	1538.942627	0.162412
862.355957	1340.077759	1563.800659	1550.241699	0.027152
862.658081	1281.322266	1618.036621	1581.879272	0.049335
862.960266	1184.149658	1502.785400	1398.833252	0.171496
863.262207	1274.542725	1520.864014	1441.770020	0.168195
863.564331	1331.038452	1568.320313	1541.202393	0.052706
863.866211	1213.527466	1520.864014	1496.005859	0.036629
864.168091	1218.047119	1455.328979	1480.187134	-0.043269
864.469910	1188.669312	1511.824707	1389.793945	0.205946
864.771729	1134.433472	1509.564819	1491.486206	0.021451
865.073425	1245.165039	1599.958008	1520.864014	0.109540
865.375122	1184.149658	1525.383667	1505.045166	0.026689
865.676819	1251.944458	1518.604126	1473.407593	0.080656
865.978333	1247.424805	1579.619507	1410.132446	0.309985
866.279907	1288.101685	1647.414307	1541.202393	0.152179
866.581360	1249.684692	1670.012573	1520.864014	0.190332
866.882874	1215.787231	1500.525513	1459.848633	0.066947
867.184143	1231.606079	1516.344360	1468.887939	0.079181
867.485535	1220.306885	1552.501587	1441.770020	0.176091
867.786743	1220.306885	1608.997314	1547.981934	0.074160
868.088013	1324.259033	1667.752808	1699.390381	-0.038265
868.389160	1270.023071	1529.903320	1545.722046	-0.025662
868.690308	1242.905151	1511.824707	1538.942627	-0.041724
868.991333	1233.865845	1482.446899	1437.250366	0.087150
869.292358	1274.542725	1627.075928	1514.084473	0.167819
869.593323	1392.053833	1631.595581	1561.540894	0.150245
869.894287	1274.542725	1430.470825	1464.368286	-0.085430
870.195068	1324.259033	1586.398926	1482.446899	0.219360
870.495911	1274.542725	1627.075928	1482.446899	0.229337
870.796692	1283.582031	1561.540894	1389.793945	0.417807
871.097412	1290.361572	1518.604126	1441.770020	0.178246
871.398010	1256.464111	1525.383667	1482.446899	0.075547
871.698669	1283.582031	1538.942627	1441.770020	0.207980
871.999207	1251.944458	1545.722046	1498.265747	0.076517
872.299683	1294.881226	1502.785400	1396.573486	0.310575
872.600159	1331.038452	1541.202393	1529.903320	0.024000
872.900574	1270.023071	1514.084473	1444.029785	0.146933
873.200867	1215.787231	1484.706787	1468.887939	0.026329
873.501160	1224.826538	1473.407593	1425.951172	0.092003
873.801392	1251.944458	1518.604126	1373.975220	0.339488
874.101624	1270.023071	1532.163086	1491.486206	0.073232
874.401733	1285.841919	1514.084473	1532.163086	-0.033105
874.701843	1224.826538	1584.139160	1493.746094	0.125850
875.001831	1227.086426	1599.958008	1450.809326	0.221849
875.301819	1274.542725	1550.241699	1403.352905	0.330485
875.601746	1306.180420	1579.619507	1550.241699	0.049362
875.901672	1306.180420	1595.438354	1471.147827	0.243887
876.201477	1163.811279	1477.927246	1500.525513	-0.030171
876.501282	1288.101685	1471.147827	1383.014526	0.285236
876.800964	1238.385498	1543.462280	1534.422974	0.013062
877.100647	1197.708618	1516.344360	1459.848633	0.084761
877.400208	1224.826538	1520.864014	1466.628174	0.087887
877.699829	1297.140991	1649.674194	1631.595581	0.022863
877.999329	1247.424805	1563.800659	1457.588867	0.177645
878.298767	1199.968506	1466.628174	1471.147827	-0.007299
878.598206	1247.424805	1602.217773	1484.706787	0.174710
878.897583	1211.267578	1498.265747	1496.005859	0.003433
879.196838	1267.763306	1575.099854	1563.800659	0.016268
879.496155	1218.047119	1462.108521	1520.864014	-0.093681
879.795288	1272.282959	1599.958008	1529.903320	0.104463
880.094482	1175.110352	1631.595581	1518.604126	0.123508
880.393555	1218.047119	1599.958008	1545.722046	0.066519
880.692627	1170.590698	1620.296387	1590.918701	0.029340
880.991577	1324.259033	1710.689453	1581.879272	0.176091
881.290588	1276.802612	1753.626221	1658.713501	0.096396
881.589355	1193.188965	1823.680908	1769.445068	0.039064
881.888306	1229.346191	2167.174561	1966.050049	0.104830
882.187012	1258.723999	2436.094238	2158.135254	0.116955
882.485840	1245.165039	2666.596680	2454.172852	0.070297
882.784424	1265.503418	3111.782715	2648.518066	0.125471
883.083069	1236.125732	3222.514160	2827.044434	0.096416
883.381592	1238.385498	3471.095215	3025.909180	0.096580
883.680176	1120.874512	3462.055908	2992.011719	0.097329
883.978638	1256.464111	3500.472900	3001.051025	0.109332
884.277039	1256.464111	3360.363770	2908.398193	0.105032
884.575378	1299.400879	3317.427002	2971.673340	0.081620
884.873779	1220.306885	3093.704102	2732.131592	0.093128
885.171997	1267.763306	2949.074951	2689.194824	0.072922
885.470276	1324.259033	3059.806641	2702.753906	0.100031
885.768311	1251.944458	2799.926514	2526.487305	0.084411
886.066528	1175.110352	2698.234131	2345.701172	0.114330
886.364502	1184.149658	2497.109619	2244.008789	0.093003
886.662537	1163.811279	2436.094238	2171.694336	0.101174
886.960510	1199.968506	2302.764404	2045.144043	0.115548
887.258362	1206.747925	2158.135254	1997.687622	0.080214
887.556213	1213.527466	1893.735596	1846.279175	0.031408
887.854004	1258.723999	1846.279175	1706.169800	0.118308
888.151733	1258.723999	1871.137207	1737.807495	0.106633
888.449402	1306.180420	1871.137207	1737.807495	0.116907
888.747009	1258.723999	1812.381714	1631.595581	0.171682
889.044617	1227.086426	1694.870728	1586.398926	0.114573
889.342163	1195.448853	1561.540894	1525.383667	0.045162
889.639648	1202.228271	1550.241699	1636.115234	-0.095781
889.937012	1236.125732	1520.864014	1532.163086	-0.016901
890.234436	1321.999146	1588.658813	1523.123779	0.122492
890.531738	1272.282959	1613.516968	1507.305054	0.161944
890.829041	1260.983765	1618.036621	1453.069214	0.269238
891.126221	1190.929199	1563.800659	1493.746094	0.090379
891.423401	1193.188965	1581.879272	1446.289673	0.186310
891.720459	1218.047119	1559.281006	1509.564819	0.068387
892.017578	1215.787231	1620.296387	1550.241699	0.082591
892.314514	1227.086426	1563.800659	1486.966553	0.112488
892.611511	1231.606079	1604.477661	1514.084473	0.120574
>>>>>End Processed Spectral Data<<<<<
